TimeStamp,RAW_TP9,RAW_FP1,RAW_FP2,RAW_TP10
2015-11-09 07:27:51,832.36005,857.0347,832.36005,824.13513
2015-11-09 07:27:51,830.7151,858.67975,832.36005,827.4251
2015-11-09 07:27:51,832.36005,850.45483,837.295,832.36005
2015-11-09 07:27:51,837.295,852.0998,835.65,827.4251
2015-11-09 07:27:51,837.295,855.3898,837.295,820.8452
2015-11-09 07:27:51,840.58496,852.0998,838.94,819.2002
2015-11-09 07:27:51,834.005,857.0347,838.94,814.26526
2015-11-09 07:27:51,837.295,858.67975,838.94,809.3303
2015-11-09 07:27:51,837.295,850.45483,838.94,817.55524
2015-11-09 07:27:51,829.07007,855.3898,840.58496,807.68536
2015-11-09 07:27:51,834.005,855.3898,840.58496,814.26526
2015-11-09 07:27:51,820.8452,850.45483,840.58496,819.2002
2015-11-09 07:27:51,814.26526,857.0347,842.2299,809.3303
2015-11-09 07:27:51,827.4251,852.0998,842.2299,815.9103
2015-11-09 07:27:51,832.36005,857.0347,840.58496,814.26526
2015-11-09 07:27:51,838.94,855.3898,838.94,824.13513
2015-11-09 07:27:51,838.94,861.9697,838.94,810.9753
2015-11-09 07:27:51,838.94,860.3247,840.58496,822.4902
2015-11-09 07:27:51,837.295,855.3898,840.58496,827.4251
2015-11-09 07:27:51,847.16486,850.45483,843.87494,830.7151
2015-11-09 07:27:51,837.295,852.0998,842.2299,832.36005
2015-11-09 07:27:51,838.94,857.0347,842.2299,822.4902
2015-11-09 07:27:51,840.58496,857.0347,840.58496,815.9103
2015-11-09 07:27:51,845.5199,861.9697,840.58496,814.26526
2015-11-09 07:27:51,857.0347,855.3898,840.58496,824.13513
2015-11-09 07:27:51,852.0998,860.3247,840.58496,814.26526
2015-11-09 07:27:51,850.45483,860.3247,843.87494,825.78015
2015-11-09 07:27:51,843.87494,858.67975,842.2299,830.7151
2015-11-09 07:27:51,830.7151,855.3898,843.87494,830.7151
2015-11-09 07:27:51,827.4251,853.7448,840.58496,834.005
2015-11-09 07:27:51,834.005,858.67975,837.295,832.36005
2015-11-09 07:27:51,837.295,853.7448,835.65,830.7151
2015-11-09 07:27:51,838.94,857.0347,835.65,827.4251
2015-11-09 07:27:51,847.16486,853.7448,835.65,825.78015
2015-11-09 07:27:51,852.0998,858.67975,834.005,814.26526
2015-11-09 07:27:51,858.67975,855.3898,835.65,825.78015
2015-11-09 07:27:51,855.3898,861.9697,834.005,820.8452
2015-11-09 07:27:51,853.7448,860.3247,834.005,824.13513
2015-11-09 07:27:51,845.5199,858.67975,832.36005,822.4902
2015-11-09 07:27:51,850.45483,865.25964,829.07007,815.9103
2015-11-09 07:27:51,853.7448,857.0347,832.36005,825.78015
2015-11-09 07:27:51,850.45483,860.3247,830.7151,825.78015
2015-11-09 07:27:51,855.3898,857.0347,834.005,829.07007
2015-11-09 07:27:51,853.7448,857.0347,832.36005,820.8452
2015-11-09 07:27:51,850.45483,860.3247,830.7151,820.8452
2015-11-09 07:27:51,850.45483,857.0347,832.36005,822.4902
2015-11-09 07:27:51,848.8099,853.7448,832.36005,825.78015
2015-11-09 07:27:51,855.3898,850.45483,832.36005,834.005
2015-11-09 07:27:51,855.3898,850.45483,832.36005,829.07007
2015-11-09 07:27:51,855.3898,850.45483,829.07007,827.4251
2015-11-09 07:27:51,848.8099,857.0347,829.07007,825.78015
2015-11-09 07:27:51,850.45483,850.45483,832.36005,835.65
2015-11-09 07:27:51,843.87494,853.7448,832.36005,830.7151
2015-11-09 07:27:51,843.87494,857.0347,834.005,825.78015
2015-11-09 07:27:51,847.16486,858.67975,832.36005,824.13513
2015-11-09 07:27:51,852.0998,861.9697,830.7151,824.13513
2015-11-09 07:27:51,855.3898,858.67975,832.36005,830.7151
2015-11-09 07:27:51,848.8099,865.25964,830.7151,824.13513
2015-11-09 07:27:51,860.3247,858.67975,829.07007,824.13513
2015-11-09 07:27:51,858.67975,861.9697,827.4251,812.6203
2015-11-09 07:27:51,866.90466,866.90466,827.4251,810.9753
2015-11-09 07:27:51,858.67975,860.3247,832.36005,817.55524
2015-11-09 07:27:51,842.2299,858.67975,830.7151,822.4902
2015-11-09 07:27:51,840.58496,857.0347,829.07007,820.8452
2015-11-09 07:27:51,845.5199,860.3247,829.07007,817.55524
2015-11-09 07:27:51,855.3898,858.67975,830.7151,822.4902
2015-11-09 07:27:51,857.0347,860.3247,830.7151,815.9103
2015-11-09 07:27:51,853.7448,852.0998,834.005,824.13513
2015-11-09 07:27:51,848.8099,853.7448,832.36005,817.55524
2015-11-09 07:27:51,850.45483,855.3898,830.7151,819.2002
2015-11-09 07:27:51,853.7448,860.3247,830.7151,822.4902
2015-11-09 07:27:51,853.7448,863.6147,834.005,825.78015
2015-11-09 07:27:51,848.8099,860.3247,830.7151,822.4902
2015-11-09 07:27:51,838.94,857.0347,832.36005,820.8452
2015-11-09 07:27:51,834.005,857.0347,830.7151,815.9103
2015-11-09 07:27:51,834.005,850.45483,829.07007,820.8452
2015-11-09 07:27:51,835.65,857.0347,830.7151,807.68536
2015-11-09 07:27:51,843.87494,853.7448,832.36005,817.55524
2015-11-09 07:27:51,837.295,858.67975,830.7151,812.6203
2015-11-09 07:27:51,837.295,861.9697,832.36005,810.9753
2015-11-09 07:27:52,840.58496,861.9697,837.295,820.8452
2015-11-09 07:27:52,840.58496,860.3247,842.2299,817.55524
2015-11-09 07:27:52,847.16486,860.3247,840.58496,827.4251
2015-11-09 07:27:52,848.8099,866.90466,837.295,824.13513
2015-11-09 07:27:52,842.2299,863.6147,837.295,814.26526
2015-11-09 07:27:52,832.36005,860.3247,834.005,809.3303
2015-11-09 07:27:52,820.8452,860.3247,835.65,804.3954
2015-11-09 07:27:52,814.26526,858.67975,832.36005,799.46045
2015-11-09 07:27:52,819.2002,863.6147,829.07007,799.46045
2015-11-09 07:27:52,825.78015,860.3247,830.7151,799.46045
2015-11-09 07:27:52,825.78015,865.25964,830.7151,789.5906
2015-11-09 07:27:52,829.07007,858.67975,834.005,801.1054
2015-11-09 07:27:52,829.07007,857.0347,834.005,804.3954
2015-11-09 07:27:52,824.13513,850.45483,832.36005,809.3303
2015-11-09 07:27:52,820.8452,855.3898,832.36005,806.04034
2015-11-09 07:27:52,829.07007,850.45483,832.36005,814.26526
2015-11-09 07:27:52,822.4902,852.0998,832.36005,807.68536
2015-11-09 07:27:52,827.4251,863.6147,834.005,809.3303
2015-11-09 07:27:52,829.07007,857.0347,837.295,814.26526
2015-11-09 07:27:52,825.78015,865.25964,837.295,807.68536
2015-11-09 07:27:52,838.94,857.0347,840.58496,817.55524
2015-11-09 07:27:52,830.7151,860.3247,840.58496,812.6203
2015-11-09 07:27:52,835.65,858.67975,838.94,807.68536
2015-11-09 07:27:52,837.295,863.6147,835.65,802.7504
2015-11-09 07:27:52,848.8099,860.3247,835.65,809.3303
2015-11-09 07:27:52,852.0998,855.3898,834.005,807.68536
2015-11-09 07:27:52,852.0998,863.6147,834.005,806.04034
2015-11-09 07:27:52,853.7448,860.3247,834.005,806.04034
2015-11-09 07:27:52,852.0998,866.90466,832.36005,802.7504
2015-11-09 07:27:52,857.0347,858.67975,832.36005,815.9103
2015-11-09 07:27:52,850.45483,860.3247,830.7151,814.26526
2015-11-09 07:27:52,850.45483,855.3898,834.005,824.13513
2015-11-09 07:27:52,850.45483,853.7448,834.005,819.2002
2015-11-09 07:27:52,852.0998,853.7448,834.005,825.78015
2015-11-09 07:27:52,852.0998,850.45483,834.005,822.4902
2015-11-09 07:27:52,855.3898,852.0998,834.005,822.4902
2015-11-09 07:27:52,855.3898,852.0998,834.005,822.4902
2015-11-09 07:27:52,855.3898,858.67975,835.65,822.4902
2015-11-09 07:27:52,843.87494,855.3898,835.65,825.78015
2015-11-09 07:27:52,837.295,858.67975,830.7151,822.4902
2015-11-09 07:27:52,848.8099,857.0347,829.07007,827.4251
2015-11-09 07:27:52,850.45483,853.7448,829.07007,820.8452
2015-11-09 07:27:52,853.7448,855.3898,825.78015,825.78015
2015-11-09 07:27:52,835.65,857.0347,822.4902,817.55524
2015-11-09 07:27:52,843.87494,863.6147,819.2002,815.9103
2015-11-09 07:27:52,845.5199,860.3247,820.8452,824.13513
2015-11-09 07:27:52,853.7448,860.3247,817.55524,822.4902
2015-11-09 07:27:52,858.67975,852.0998,820.8452,827.4251
2015-11-09 07:27:52,842.2299,853.7448,819.2002,812.6203
2015-11-09 07:27:52,848.8099,860.3247,822.4902,815.9103
2015-11-09 07:27:52,847.16486,860.3247,827.4251,814.26526
2015-11-09 07:27:52,858.67975,863.6147,827.4251,822.4902
2015-11-09 07:27:52,857.0347,861.9697,827.4251,817.55524
2015-11-09 07:27:52,858.67975,868.5496,827.4251,810.9753
2015-11-09 07:27:52,868.5496,861.9697,830.7151,825.78015
2015-11-09 07:27:52,853.7448,865.25964,827.4251,809.3303
2015-11-09 07:27:52,863.6147,860.3247,832.36005,827.4251
2015-11-09 07:27:52,857.0347,861.9697,834.005,822.4902
2015-11-09 07:27:52,855.3898,866.90466,835.65,820.8452
2015-11-09 07:27:52,857.0347,861.9697,837.295,824.13513
2015-11-09 07:27:52,860.3247,865.25964,834.005,827.4251
2015-11-09 07:27:52,858.67975,852.0998,834.005,829.07007
2015-11-09 07:27:52,858.67975,857.0347,832.36005,817.55524
2015-11-09 07:27:52,857.0347,853.7448,830.7151,824.13513
2015-11-09 07:27:52,853.7448,860.3247,835.65,819.2002
2015-11-09 07:27:52,860.3247,860.3247,835.65,824.13513
2015-11-09 07:27:52,845.5199,857.0347,837.295,819.2002
2015-11-09 07:27:52,850.45483,863.6147,834.005,820.8452
2015-11-09 07:27:52,853.7448,853.7448,829.07007,822.4902
2015-11-09 07:27:52,845.5199,861.9697,832.36005,817.55524
2015-11-09 07:27:52,855.3898,860.3247,829.07007,827.4251
2015-11-09 07:27:52,850.45483,861.9697,832.36005,815.9103
2015-11-09 07:27:52,855.3898,861.9697,832.36005,810.9753
2015-11-09 07:27:52,853.7448,858.67975,835.65,819.2002
2015-11-09 07:27:52,858.67975,855.3898,840.58496,815.9103
2015-11-09 07:27:52,842.2299,855.3898,835.65,820.8452
2015-11-09 07:27:52,848.8099,861.9697,835.65,819.2002
2015-11-09 07:27:52,845.5199,855.3898,835.65,822.4902
2015-11-09 07:27:52,835.65,863.6147,830.7151,812.6203
2015-11-09 07:27:52,837.295,852.0998,838.94,824.13513
2015-11-09 07:27:52,832.36005,860.3247,832.36005,817.55524
2015-11-09 07:27:52,853.7448,855.3898,835.65,824.13513
2015-11-09 07:27:52,852.0998,855.3898,838.94,815.9103
2015-11-09 07:27:52,853.7448,860.3247,838.94,817.55524
2015-11-09 07:27:52,852.0998,858.67975,837.295,820.8452
2015-11-09 07:27:52,834.005,860.3247,834.005,814.26526
2015-11-09 07:27:52,834.005,855.3898,832.36005,819.2002
2015-11-09 07:27:52,838.94,858.67975,830.7151,814.26526
2015-11-09 07:27:52,830.7151,852.0998,832.36005,819.2002
2015-11-09 07:27:52,848.8099,852.0998,835.65,825.78015
2015-11-09 07:27:52,840.58496,850.45483,830.7151,824.13513
2015-11-09 07:27:52,840.58496,850.45483,832.36005,817.55524
2015-11-09 07:27:52,850.45483,855.3898,832.36005,814.26526
2015-11-09 07:27:52,834.005,858.67975,832.36005,814.26526
2015-11-09 07:27:52,850.45483,857.0347,832.36005,815.9103
2015-11-09 07:27:52,835.65,853.7448,834.005,822.4902
2015-11-09 07:27:52,825.78015,850.45483,837.295,829.07007
2015-11-09 07:27:52,825.78015,855.3898,835.65,827.4251
2015-11-09 07:27:52,832.36005,855.3898,837.295,829.07007
2015-11-09 07:27:52,843.87494,852.0998,837.295,827.4251
2015-11-09 07:27:52,840.58496,853.7448,834.005,815.9103
2015-11-09 07:27:52,834.005,853.7448,837.295,820.8452
2015-11-09 07:27:52,829.07007,855.3898,835.65,822.4902
2015-11-09 07:27:52,832.36005,858.67975,837.295,820.8452
2015-11-09 07:27:52,830.7151,852.0998,840.58496,827.4251
2015-11-09 07:27:52,832.36005,857.0347,837.295,822.4902
2015-11-09 07:27:52,834.005,860.3247,838.94,822.4902
2015-11-09 07:27:52,835.65,858.67975,838.94,830.7151
2015-11-09 07:27:52,853.7448,855.3898,843.87494,825.78015
2015-11-09 07:27:52,860.3247,855.3898,843.87494,827.4251
2015-11-09 07:27:52,847.16486,860.3247,842.2299,830.7151
2015-11-09 07:27:52,853.7448,863.6147,847.16486,827.4251
2015-11-09 07:27:52,842.2299,858.67975,847.16486,832.36005
2015-11-09 07:27:52,845.5199,857.0347,847.16486,827.4251
2015-11-09 07:27:52,852.0998,855.3898,847.16486,822.4902
2015-11-09 07:27:52,840.58496,858.67975,842.2299,810.9753
2015-11-09 07:27:52,834.005,855.3898,845.5199,810.9753
2015-11-09 07:27:52,830.7151,850.45483,840.58496,812.6203
2015-11-09 07:27:52,845.5199,850.45483,843.87494,812.6203
2015-11-09 07:27:52,857.0347,857.0347,842.2299,820.8452
2015-11-09 07:27:52,845.5199,850.45483,842.2299,819.2002
2015-11-09 07:27:52,830.7151,848.8099,840.58496,817.55524
2015-11-09 07:27:52,819.2002,853.7448,838.94,819.2002
2015-11-09 07:27:52,848.8099,855.3898,835.65,812.6203
2015-11-09 07:27:52,861.9697,861.9697,832.36005,815.9103
2015-11-09 07:27:52,861.9697,861.9697,834.005,815.9103
2015-11-09 07:27:52,848.8099,853.7448,832.36005,819.2002
2015-11-09 07:27:52,835.65,855.3898,834.005,824.13513
2015-11-09 07:27:52,845.5199,857.0347,835.65,817.55524
2015-11-09 07:27:52,850.45483,861.9697,829.07007,815.9103
2015-11-09 07:27:52,861.9697,861.9697,830.7151,820.8452
2015-11-09 07:27:52,848.8099,861.9697,832.36005,820.8452
2015-11-09 07:27:52,843.87494,853.7448,829.07007,822.4902
2015-11-09 07:27:52,842.2299,850.45483,829.07007,820.8452
2015-11-09 07:27:52,838.94,858.67975,832.36005,812.6203
2015-11-09 07:27:52,832.36005,853.7448,834.005,815.9103
2015-11-09 07:27:52,837.295,857.0347,837.295,827.4251
2015-11-09 07:27:52,852.0998,853.7448,838.94,830.7151
2015-11-09 07:27:52,847.16486,855.3898,838.94,824.13513
2015-11-09 07:27:52,855.3898,852.0998,843.87494,822.4902
2015-11-09 07:27:52,843.87494,850.45483,845.5199,824.13513
2015-11-09 07:27:52,840.58496,850.45483,840.58496,824.13513
2015-11-09 07:27:52,840.58496,853.7448,842.2299,827.4251
2015-11-09 07:27:52,840.58496,855.3898,843.87494,820.8452
2015-11-09 07:27:52,842.2299,852.0998,845.5199,822.4902
2015-11-09 07:27:52,842.2299,852.0998,842.2299,820.8452
2015-11-09 07:27:52,837.295,850.45483,840.58496,819.2002
2015-11-09 07:27:52,847.16486,855.3898,834.005,814.26526
2015-11-09 07:27:52,845.5199,857.0347,835.65,809.3303
2015-11-09 07:27:52,840.58496,852.0998,837.295,820.8452
2015-11-09 07:27:52,850.45483,858.67975,837.295,820.8452
2015-11-09 07:27:52,855.3898,860.3247,834.005,819.2002
2015-11-09 07:27:52,835.65,858.67975,832.36005,814.26526
2015-11-09 07:27:52,850.45483,860.3247,832.36005,807.68536
2015-11-09 07:27:52,860.3247,858.67975,835.65,819.2002
2015-11-09 07:27:52,838.94,858.67975,837.295,819.2002
2015-11-09 07:27:52,860.3247,861.9697,838.94,817.55524
2015-11-09 07:27:52,840.58496,858.67975,837.295,819.2002
2015-11-09 07:27:52,850.45483,857.0347,840.58496,814.26526
2015-11-09 07:27:52,865.25964,858.67975,843.87494,819.2002
2015-11-09 07:27:52,853.7448,857.0347,842.2299,817.55524
2015-11-09 07:27:52,842.2299,853.7448,840.58496,812.6203
2015-11-09 07:27:52,855.3898,858.67975,840.58496,822.4902
2015-11-09 07:27:52,838.94,855.3898,840.58496,822.4902
2015-11-09 07:27:52,840.58496,857.0347,838.94,819.2002
2015-11-09 07:27:52,857.0347,855.3898,840.58496,819.2002
2015-11-09 07:27:52,843.87494,853.7448,840.58496,815.9103
2015-11-09 07:27:52,848.8099,855.3898,838.94,812.6203
2015-11-09 07:27:52,853.7448,860.3247,838.94,814.26526
2015-11-09 07:27:52,848.8099,861.9697,840.58496,815.9103
2015-11-09 07:27:52,848.8099,860.3247,838.94,815.9103
2015-11-09 07:27:52,840.58496,860.3247,837.295,814.26526
2015-11-09 07:27:52,848.8099,860.3247,838.94,810.9753
2015-11-09 07:27:52,845.5199,863.6147,834.005,799.46045
2015-11-09 07:27:52,852.0998,865.25964,832.36005,806.04034
2015-11-09 07:27:53,853.7448,863.6147,834.005,820.8452
2015-11-09 07:27:53,840.58496,865.25964,830.7151,814.26526
2015-11-09 07:27:53,860.3247,863.6147,829.07007,819.2002
2015-11-09 07:27:53,857.0347,857.0347,830.7151,812.6203
2015-11-09 07:27:53,853.7448,855.3898,830.7151,810.9753
2015-11-09 07:27:53,860.3247,861.9697,835.65,815.9103
2015-11-09 07:27:53,857.0347,863.6147,835.65,814.26526
2015-11-09 07:27:53,863.6147,865.25964,834.005,817.55524
2015-11-09 07:27:53,850.45483,860.3247,835.65,819.2002
2015-11-09 07:27:53,832.36005,853.7448,835.65,812.6203
2015-11-09 07:27:53,834.005,855.3898,837.295,815.9103
2015-11-09 07:27:53,842.2299,858.67975,838.94,824.13513
2015-11-09 07:27:53,838.94,855.3898,835.65,819.2002
2015-11-09 07:27:53,837.295,853.7448,837.295,827.4251
2015-11-09 07:27:53,832.36005,853.7448,838.94,820.8452
2015-11-09 07:27:53,840.58496,853.7448,838.94,822.4902
2015-11-09 07:27:53,842.2299,857.0347,837.295,817.55524
2015-11-09 07:27:53,835.65,857.0347,837.295,822.4902
2015-11-09 07:27:53,840.58496,857.0347,835.65,824.13513
2015-11-09 07:27:53,855.3898,857.0347,830.7151,827.4251
2015-11-09 07:27:53,852.0998,858.67975,837.295,834.005
2015-11-09 07:27:53,860.3247,858.67975,832.36005,830.7151
2015-11-09 07:27:53,852.0998,861.9697,832.36005,829.07007
2015-11-09 07:27:53,848.8099,860.3247,832.36005,832.36005
2015-11-09 07:27:53,853.7448,860.3247,827.4251,825.78015
2015-11-09 07:27:53,852.0998,863.6147,829.07007,819.2002
2015-11-09 07:27:53,845.5199,866.90466,825.78015,815.9103
2015-11-09 07:27:53,855.3898,866.90466,822.4902,812.6203
2015-11-09 07:27:53,857.0347,861.9697,827.4251,820.8452
2015-11-09 07:27:53,853.7448,863.6147,824.13513,824.13513
2015-11-09 07:27:53,853.7448,861.9697,824.13513,827.4251
2015-11-09 07:27:53,857.0347,860.3247,825.78015,822.4902
2015-11-09 07:27:53,860.3247,860.3247,822.4902,820.8452
2015-11-09 07:27:53,852.0998,858.67975,825.78015,819.2002
2015-11-09 07:27:53,848.8099,858.67975,824.13513,829.07007
2015-11-09 07:27:53,840.58496,861.9697,820.8452,835.65
2015-11-09 07:27:53,858.67975,858.67975,822.4902,842.2299
2015-11-09 07:27:53,853.7448,857.0347,819.2002,842.2299
2015-11-09 07:27:53,857.0347,860.3247,815.9103,845.5199
2015-11-09 07:27:53,858.67975,857.0347,814.26526,840.58496
2015-11-09 07:27:53,837.295,855.3898,810.9753,843.87494
2015-11-09 07:27:53,832.36005,855.3898,809.3303,848.8099
2015-11-09 07:27:53,842.2299,855.3898,810.9753,847.16486
2015-11-09 07:27:53,843.87494,858.67975,807.68536,852.0998
2015-11-09 07:27:53,852.0998,860.3247,806.04034,853.7448
2015-11-09 07:27:53,855.3898,860.3247,809.3303,848.8099
2015-11-09 07:27:53,847.16486,860.3247,806.04034,855.3898
2015-11-09 07:27:53,843.87494,861.9697,809.3303,857.0347
2015-11-09 07:27:53,848.8099,857.0347,809.3303,858.67975
2015-11-09 07:27:53,835.65,853.7448,810.9753,845.5199
2015-11-09 07:27:53,843.87494,861.9697,807.68536,853.7448
2015-11-09 07:27:53,850.45483,861.9697,807.68536,843.87494
2015-11-09 07:27:53,848.8099,861.9697,810.9753,857.0347
2015-11-09 07:27:53,855.3898,863.6147,810.9753,858.67975
2015-11-09 07:27:53,842.2299,861.9697,815.9103,850.45483
2015-11-09 07:27:53,852.0998,865.25964,815.9103,850.45483
2015-11-09 07:27:53,852.0998,861.9697,815.9103,853.7448
2015-11-09 07:27:53,850.45483,860.3247,814.26526,850.45483
2015-11-09 07:27:53,860.3247,858.67975,817.55524,852.0998
2015-11-09 07:27:53,850.45483,860.3247,815.9103,852.0998
2015-11-09 07:27:53,835.65,855.3898,820.8452,861.9697
2015-11-09 07:27:53,824.13513,848.8099,825.78015,857.0347
2015-11-09 07:27:53,827.4251,855.3898,820.8452,857.0347
2015-11-09 07:27:53,834.005,853.7448,820.8452,848.8099
2015-11-09 07:27:53,853.7448,857.0347,817.55524,860.3247
2015-11-09 07:27:53,853.7448,857.0347,817.55524,860.3247
2015-11-09 07:27:53,845.5199,853.7448,820.8452,857.0347
2015-11-09 07:27:53,848.8099,857.0347,820.8452,852.0998
2015-11-09 07:27:53,840.58496,858.67975,820.8452,847.16486
2015-11-09 07:27:53,850.45483,857.0347,825.78015,848.8099
2015-11-09 07:27:53,853.7448,857.0347,825.78015,847.16486
2015-11-09 07:27:53,847.16486,858.67975,824.13513,848.8099
2015-11-09 07:27:53,848.8099,857.0347,825.78015,848.8099
2015-11-09 07:27:53,840.58496,858.67975,824.13513,847.16486
2015-11-09 07:27:53,852.0998,857.0347,827.4251,850.45483
2015-11-09 07:27:53,873.48456,861.9697,825.78015,834.005
2015-11-09 07:27:53,870.1946,850.45483,829.07007,850.45483
2015-11-09 07:27:53,852.0998,858.67975,825.78015,837.295
2015-11-09 07:27:53,852.0998,860.3247,829.07007,847.16486
2015-11-09 07:27:53,853.7448,858.67975,825.78015,843.87494
2015-11-09 07:27:53,860.3247,860.3247,820.8452,840.58496
2015-11-09 07:27:53,858.67975,852.0998,825.78015,850.45483
2015-11-09 07:27:53,845.5199,855.3898,825.78015,848.8099
2015-11-09 07:27:53,838.94,852.0998,825.78015,847.16486
2015-11-09 07:27:53,842.2299,858.67975,825.78015,842.2299
2015-11-09 07:27:53,850.45483,855.3898,825.78015,847.16486
2015-11-09 07:27:53,832.36005,850.45483,824.13513,842.2299
2015-11-09 07:27:53,827.4251,848.8099,824.13513,848.8099
2015-11-09 07:27:53,837.295,850.45483,822.4902,842.2299
2015-11-09 07:27:53,842.2299,855.3898,820.8452,842.2299
2015-11-09 07:27:53,848.8099,858.67975,817.55524,843.87494
2015-11-09 07:27:53,837.295,860.3247,817.55524,837.295
2015-11-09 07:27:53,837.295,852.0998,820.8452,842.2299
2015-11-09 07:27:53,853.7448,860.3247,819.2002,834.005
2015-11-09 07:27:53,853.7448,860.3247,819.2002,830.7151
2015-11-09 07:27:53,852.0998,852.0998,825.78015,835.65
2015-11-09 07:27:53,852.0998,858.67975,825.78015,840.58496
2015-11-09 07:27:53,840.58496,853.7448,825.78015,840.58496
2015-11-09 07:27:53,845.5199,860.3247,829.07007,837.295
2015-11-09 07:27:53,843.87494,857.0347,825.78015,834.005
2015-11-09 07:27:53,834.005,858.67975,825.78015,829.07007
2015-11-09 07:27:53,848.8099,855.3898,825.78015,832.36005
2015-11-09 07:27:53,842.2299,860.3247,819.2002,840.58496
2015-11-09 07:27:53,842.2299,857.0347,819.2002,838.94
2015-11-09 07:27:53,829.07007,855.3898,822.4902,835.65
2015-11-09 07:27:53,835.65,852.0998,822.4902,838.94
2015-11-09 07:27:53,835.65,845.5199,822.4902,835.65
2015-11-09 07:27:53,845.5199,855.3898,819.2002,834.005
2015-11-09 07:27:53,847.16486,855.3898,819.2002,830.7151
2015-11-09 07:27:53,837.295,858.67975,817.55524,829.07007
2015-11-09 07:27:53,840.58496,860.3247,815.9103,837.295
2015-11-09 07:27:53,832.36005,863.6147,810.9753,830.7151
2015-11-09 07:27:53,835.65,858.67975,815.9103,842.2299
2015-11-09 07:27:53,835.65,855.3898,815.9103,837.295
2015-11-09 07:27:53,837.295,852.0998,812.6203,835.65
2015-11-09 07:27:53,835.65,852.0998,815.9103,832.36005
2015-11-09 07:27:53,837.295,853.7448,815.9103,835.65
2015-11-09 07:27:53,834.005,853.7448,817.55524,832.36005
2015-11-09 07:27:53,840.58496,857.0347,815.9103,829.07007
2015-11-09 07:27:53,843.87494,845.5199,815.9103,832.36005
2015-11-09 07:27:53,847.16486,853.7448,815.9103,815.9103
2015-11-09 07:27:53,842.2299,852.0998,819.2002,830.7151
2015-11-09 07:27:53,838.94,853.7448,814.26526,829.07007
2015-11-09 07:27:53,852.0998,861.9697,807.68536,822.4902
2015-11-09 07:27:53,845.5199,857.0347,807.68536,822.4902
2015-11-09 07:27:53,840.58496,855.3898,807.68536,825.78015
2015-11-09 07:27:53,840.58496,850.45483,807.68536,832.36005
2015-11-09 07:27:53,829.07007,857.0347,809.3303,822.4902
2015-11-09 07:27:53,838.94,857.0347,812.6203,824.13513
2015-11-09 07:27:53,837.295,857.0347,810.9753,820.8452
2015-11-09 07:27:53,848.8099,852.0998,814.26526,834.005
2015-11-09 07:27:53,860.3247,850.45483,815.9103,857.0347
2015-11-09 07:27:53,842.2299,855.3898,815.9103,825.78015
2015-11-09 07:27:53,835.65,850.45483,824.13513,822.4902
2015-11-09 07:27:53,827.4251,852.0998,820.8452,829.07007
2015-11-09 07:27:53,822.4902,845.5199,824.13513,809.3303
2015-11-09 07:27:53,834.005,848.8099,825.78015,807.68536
2015-11-09 07:27:53,825.78015,850.45483,829.07007,804.3954
2015-11-09 07:27:53,810.9753,850.45483,827.4251,787.94556
2015-11-09 07:27:53,812.6203,848.8099,825.78015,797.8155
2015-11-09 07:27:53,804.3954,843.87494,822.4902,792.88055
2015-11-09 07:27:53,810.9753,860.3247,825.78015,786.3006
2015-11-09 07:27:53,812.6203,848.8099,827.4251,781.36566
2015-11-09 07:27:53,809.3303,858.67975,825.78015,786.3006
2015-11-09 07:27:53,806.04034,855.3898,822.4902,776.4307
2015-11-09 07:27:53,819.2002,858.67975,819.2002,774.78577
2015-11-09 07:27:53,832.36005,855.3898,822.4902,789.5906
2015-11-09 07:27:53,835.65,855.3898,824.13513,789.5906
2015-11-09 07:27:53,830.7151,858.67975,827.4251,802.7504
2015-11-09 07:27:53,825.78015,855.3898,824.13513,804.3954
2015-11-09 07:27:53,825.78015,863.6147,827.4251,804.3954
2015-11-09 07:27:53,834.005,848.8099,829.07007,815.9103
2015-11-09 07:27:53,824.13513,848.8099,829.07007,810.9753
2015-11-09 07:27:53,822.4902,861.9697,830.7151,810.9753
2015-11-09 07:27:53,838.94,861.9697,830.7151,817.55524
2015-11-09 07:27:53,845.5199,858.67975,834.005,817.55524
2015-11-09 07:27:53,832.36005,858.67975,832.36005,815.9103
2015-11-09 07:27:53,832.36005,860.3247,832.36005,812.6203
2015-11-09 07:27:53,824.13513,855.3898,830.7151,809.3303
2015-11-09 07:27:53,817.55524,868.5496,829.07007,804.3954
2015-11-09 07:27:53,840.58496,861.9697,832.36005,817.55524
2015-11-09 07:27:53,834.005,857.0347,834.005,827.4251
2015-11-09 07:27:53,838.94,857.0347,832.36005,827.4251
2015-11-09 07:27:53,830.7151,858.67975,829.07007,822.4902
2015-11-09 07:27:53,825.78015,852.0998,829.07007,829.07007
2015-11-09 07:27:53,830.7151,858.67975,829.07007,819.2002
2015-11-09 07:27:53,845.5199,860.3247,827.4251,820.8452
2015-11-09 07:27:53,857.0347,857.0347,829.07007,812.6203
2015-11-09 07:27:53,850.45483,863.6147,825.78015,804.3954
2015-11-09 07:27:53,850.45483,860.3247,829.07007,812.6203
2015-11-09 07:27:53,847.16486,861.9697,829.07007,817.55524
2015-11-09 07:27:53,842.2299,861.9697,830.7151,819.2002
2015-11-09 07:27:53,843.87494,858.67975,830.7151,817.55524
2015-11-09 07:27:53,847.16486,858.67975,830.7151,829.07007
2015-11-09 07:27:53,835.65,858.67975,829.07007,829.07007
2015-11-09 07:27:53,837.295,863.6147,830.7151,820.8452
2015-11-09 07:27:53,837.295,860.3247,829.07007,820.8452
2015-11-09 07:27:53,838.94,858.67975,830.7151,817.55524
2015-11-09 07:27:53,835.65,853.7448,834.005,812.6203
2015-11-09 07:27:53,835.65,848.8099,830.7151,825.78015
2015-11-09 07:27:53,830.7151,858.67975,827.4251,817.55524
2015-11-09 07:27:53,835.65,855.3898,824.13513,815.9103
2015-11-09 07:27:53,824.13513,850.45483,820.8452,815.9103
2015-11-09 07:27:53,822.4902,858.67975,819.2002,810.9753
2015-11-09 07:27:53,820.8452,852.0998,820.8452,814.26526
2015-11-09 07:27:53,827.4251,855.3898,820.8452,810.9753
2015-11-09 07:27:53,834.005,850.45483,822.4902,824.13513
2015-11-09 07:27:53,830.7151,858.67975,819.2002,807.68536
2015-11-09 07:27:53,832.36005,858.67975,824.13513,817.55524
2015-11-09 07:27:53,838.94,857.0347,820.8452,810.9753
2015-11-09 07:27:53,853.7448,860.3247,822.4902,810.9753
2015-11-09 07:27:53,855.3898,865.25964,824.13513,812.6203
2015-11-09 07:27:53,855.3898,858.67975,825.78015,822.4902
2015-11-09 07:27:53,842.2299,861.9697,827.4251,814.26526
2015-11-09 07:27:53,843.87494,858.67975,829.07007,815.9103
2015-11-09 07:27:53,845.5199,852.0998,829.07007,822.4902
2015-11-09 07:27:53,837.295,860.3247,830.7151,822.4902
2015-11-09 07:27:53,840.58496,853.7448,835.65,835.65
2015-11-09 07:27:53,835.65,857.0347,835.65,829.07007
2015-11-09 07:27:53,835.65,860.3247,834.005,827.4251
2015-11-09 07:27:53,853.7448,861.9697,830.7151,830.7151
2015-11-09 07:27:53,847.16486,861.9697,832.36005,835.65
2015-11-09 07:27:53,847.16486,861.9697,832.36005,840.58496
2015-11-09 07:27:53,840.58496,853.7448,834.005,840.58496
2015-11-09 07:27:53,835.65,860.3247,832.36005,829.07007
2015-11-09 07:27:53,842.2299,853.7448,835.65,834.005
2015-11-09 07:27:53,832.36005,857.0347,834.005,820.8452
2015-11-09 07:27:53,838.94,855.3898,835.65,830.7151
2015-11-09 07:27:53,822.4902,853.7448,832.36005,830.7151
2015-11-09 07:27:53,829.07007,855.3898,829.07007,829.07007
2015-11-09 07:27:53,837.295,847.16486,825.78015,827.4251
2015-11-09 07:27:53,847.16486,857.0347,825.78015,825.78015
2015-11-09 07:27:53,847.16486,860.3247,825.78015,824.13513
2015-11-09 07:27:53,847.16486,863.6147,824.13513,829.07007
2015-11-09 07:27:53,866.90466,865.25964,824.13513,835.65
2015-11-09 07:27:53,860.3247,865.25964,824.13513,824.13513
2015-11-09 07:27:53,865.25964,855.3898,829.07007,840.58496
2015-11-09 07:27:53,850.45483,858.67975,827.4251,832.36005
2015-11-09 07:27:53,842.2299,861.9697,827.4251,830.7151
2015-11-09 07:27:53,842.2299,858.67975,827.4251,832.36005
2015-11-09 07:27:53,840.58496,863.6147,829.07007,824.13513
2015-11-09 07:27:53,847.16486,860.3247,832.36005,827.4251
2015-11-09 07:27:53,835.65,861.9697,834.005,825.78015
2015-11-09 07:27:53,838.94,860.3247,834.005,824.13513
2015-11-09 07:27:53,847.16486,858.67975,832.36005,820.8452
2015-11-09 07:27:53,852.0998,860.3247,832.36005,830.7151
2015-11-09 07:27:53,868.5496,853.7448,832.36005,835.65
2015-11-09 07:27:53,865.25964,863.6147,827.4251,834.005
2015-11-09 07:27:53,832.36005,861.9697,827.4251,820.8452
2015-11-09 07:27:53,814.26526,858.67975,825.78015,822.4902
2015-11-09 07:27:53,807.68536,858.67975,822.4902,819.2002
2015-11-09 07:27:53,812.6203,860.3247,822.4902,817.55524
2015-11-09 07:27:53,832.36005,858.67975,827.4251,829.07007
2015-11-09 07:27:53,834.005,855.3898,827.4251,820.8452
2015-11-09 07:27:53,830.7151,853.7448,825.78015,817.55524
2015-11-09 07:27:53,834.005,863.6147,824.13513,824.13513
2015-11-09 07:27:53,842.2299,860.3247,825.78015,829.07007
2015-11-09 07:27:53,842.2299,857.0347,827.4251,827.4251
2015-11-09 07:27:53,842.2299,858.67975,829.07007,827.4251
2015-11-09 07:27:53,840.58496,853.7448,834.005,830.7151
2015-11-09 07:27:53,845.5199,860.3247,827.4251,822.4902
2015-11-09 07:27:53,845.5199,870.1946,829.07007,822.4902
2015-11-09 07:27:53,858.67975,855.3898,830.7151,837.295
2015-11-09 07:27:53,847.16486,861.9697,825.78015,827.4251
2015-11-09 07:27:53,853.7448,868.5496,827.4251,830.7151
2015-11-09 07:27:53,842.2299,860.3247,825.78015,829.07007
2015-11-09 07:27:53,835.65,866.90466,825.78015,815.9103
2015-11-09 07:27:53,842.2299,861.9697,825.78015,825.78015
2015-11-09 07:27:53,837.295,858.67975,827.4251,832.36005
2015-11-09 07:27:53,847.16486,868.5496,825.78015,822.4902
2015-11-09 07:27:53,840.58496,855.3898,824.13513,814.26526
2015-11-09 07:27:53,832.36005,852.0998,820.8452,819.2002
2015-11-09 07:27:53,832.36005,848.8099,820.8452,814.26526
2015-11-09 07:27:53,834.005,847.16486,819.2002,822.4902
2015-11-09 07:27:53,837.295,845.5199,822.4902,819.2002
2015-11-09 07:27:53,825.78015,840.58496,820.8452,812.6203
2015-11-09 07:27:53,819.2002,837.295,822.4902,810.9753
2015-11-09 07:27:53,827.4251,845.5199,822.4902,810.9753
2015-11-09 07:27:53,825.78015,842.2299,822.4902,814.26526
2015-11-09 07:27:53,829.07007,845.5199,825.78015,825.78015
2015-11-09 07:27:53,819.2002,842.2299,825.78015,830.7151
2015-11-09 07:27:54,824.13513,842.2299,824.13513,820.8452
2015-11-09 07:27:54,835.65,843.87494,827.4251,834.005
2015-11-09 07:27:54,827.4251,847.16486,825.78015,815.9103
2015-11-09 07:27:54,830.7151,837.295,827.4251,827.4251
2015-11-09 07:27:54,819.2002,852.0998,830.7151,825.78015
2015-11-09 07:27:54,834.005,853.7448,827.4251,827.4251
2015-11-09 07:27:54,835.65,853.7448,829.07007,830.7151
2015-11-09 07:27:54,840.58496,863.6147,827.4251,832.36005
2015-11-09 07:27:54,842.2299,852.0998,830.7151,834.005
2015-11-09 07:27:54,842.2299,865.25964,829.07007,830.7151
2015-11-09 07:27:54,858.67975,860.3247,827.4251,840.58496
2015-11-09 07:27:54,852.0998,861.9697,830.7151,837.295
2015-11-09 07:27:54,860.3247,860.3247,825.78015,840.58496
2015-11-09 07:27:54,847.16486,861.9697,830.7151,827.4251
2015-11-09 07:27:54,853.7448,860.3247,830.7151,830.7151
2015-11-09 07:27:54,848.8099,860.3247,829.07007,827.4251
2015-11-09 07:27:54,845.5199,858.67975,834.005,830.7151
2015-11-09 07:27:54,848.8099,857.0347,834.005,832.36005
2015-11-09 07:27:54,847.16486,865.25964,832.36005,829.07007
2015-11-09 07:27:54,848.8099,853.7448,830.7151,827.4251
2015-11-09 07:27:54,847.16486,860.3247,829.07007,827.4251
2015-11-09 07:27:54,847.16486,855.3898,832.36005,834.005
2015-11-09 07:27:54,837.295,855.3898,827.4251,824.13513
2015-11-09 07:27:54,840.58496,858.67975,832.36005,829.07007
2015-11-09 07:27:54,830.7151,848.8099,830.7151,830.7151
2015-11-09 07:27:54,840.58496,861.9697,832.36005,824.13513
2015-11-09 07:27:54,830.7151,857.0347,835.65,834.005
2015-11-09 07:27:54,843.87494,860.3247,832.36005,824.13513
2015-11-09 07:27:54,852.0998,852.0998,834.005,832.36005
2015-11-09 07:27:54,847.16486,861.9697,829.07007,815.9103
2015-11-09 07:27:54,853.7448,863.6147,827.4251,830.7151
2015-11-09 07:27:54,845.5199,857.0347,830.7151,829.07007
2015-11-09 07:27:54,842.2299,858.67975,827.4251,824.13513
2015-11-09 07:27:54,837.295,852.0998,829.07007,825.78015
2015-11-09 07:27:54,850.45483,860.3247,827.4251,819.2002
2015-11-09 07:27:54,842.2299,857.0347,825.78015,827.4251
2015-11-09 07:27:54,858.67975,863.6147,827.4251,822.4902
2015-11-09 07:27:54,861.9697,853.7448,824.13513,829.07007
2015-11-09 07:27:54,845.5199,858.67975,825.78015,815.9103
2015-11-09 07:27:54,842.2299,861.9697,825.78015,832.36005
2015-11-09 07:27:54,835.65,858.67975,827.4251,834.005
2015-11-09 07:27:54,845.5199,860.3247,827.4251,830.7151
2015-11-09 07:27:54,832.36005,857.0347,827.4251,822.4902
2015-11-09 07:27:54,840.58496,861.9697,824.13513,822.4902
2015-11-09 07:27:54,835.65,860.3247,829.07007,827.4251
2015-11-09 07:27:54,847.16486,860.3247,829.07007,822.4902
2015-11-09 07:27:54,842.2299,861.9697,824.13513,827.4251
2015-11-09 07:27:54,847.16486,855.3898,830.7151,824.13513
2015-11-09 07:27:54,845.5199,855.3898,829.07007,820.8452
2015-11-09 07:27:54,850.45483,865.25964,829.07007,814.26526
2015-11-09 07:27:54,857.0347,858.67975,830.7151,824.13513
2015-11-09 07:27:54,840.58496,866.90466,832.36005,819.2002
2015-11-09 07:27:54,848.8099,858.67975,834.005,837.295
2015-11-09 07:27:54,838.94,850.45483,834.005,837.295
2015-11-09 07:27:54,852.0998,855.3898,834.005,830.7151
2015-11-09 07:27:54,848.8099,860.3247,830.7151,825.78015
2015-11-09 07:27:54,845.5199,861.9697,835.65,825.78015
2015-11-09 07:27:54,857.0347,866.90466,834.005,827.4251
2015-11-09 07:27:54,850.45483,857.0347,835.65,832.36005
2015-11-09 07:27:54,842.2299,857.0347,830.7151,830.7151
2015-11-09 07:27:54,858.67975,865.25964,825.78015,827.4251
2015-11-09 07:27:54,853.7448,863.6147,829.07007,830.7151
2015-11-09 07:27:54,855.3898,860.3247,829.07007,829.07007
2015-11-09 07:27:54,858.67975,853.7448,829.07007,837.295
2015-11-09 07:27:54,848.8099,858.67975,829.07007,832.36005
2015-11-09 07:27:54,852.0998,853.7448,829.07007,820.8452
2015-11-09 07:27:54,850.45483,860.3247,829.07007,822.4902
2015-11-09 07:27:54,852.0998,866.90466,830.7151,825.78015
2015-11-09 07:27:54,850.45483,853.7448,829.07007,825.78015
2015-11-09 07:27:54,850.45483,860.3247,827.4251,829.07007
2015-11-09 07:27:54,860.3247,858.67975,825.78015,819.2002
2015-11-09 07:27:54,860.3247,857.0347,829.07007,837.295
2015-11-09 07:27:54,855.3898,858.67975,830.7151,832.36005
2015-11-09 07:27:54,855.3898,858.67975,829.07007,837.295
2015-11-09 07:27:54,853.7448,860.3247,830.7151,840.58496
2015-11-09 07:27:54,847.16486,853.7448,832.36005,837.295
2015-11-09 07:27:54,848.8099,857.0347,830.7151,838.94
2015-11-09 07:27:54,848.8099,857.0347,830.7151,824.13513
2015-11-09 07:27:54,850.45483,861.9697,827.4251,824.13513
2015-11-09 07:27:54,860.3247,860.3247,829.07007,834.005
2015-11-09 07:27:54,865.25964,857.0347,829.07007,840.58496
2015-11-09 07:27:54,857.0347,857.0347,830.7151,840.58496
2015-11-09 07:27:54,853.7448,857.0347,830.7151,825.78015
2015-11-09 07:27:54,870.1946,857.0347,830.7151,827.4251
2015-11-09 07:27:54,876.77454,857.0347,829.07007,840.58496
2015-11-09 07:27:54,871.8396,853.7448,830.7151,852.0998
2015-11-09 07:27:54,850.45483,863.6147,825.78015,837.295
2015-11-09 07:27:54,848.8099,861.9697,827.4251,834.005
2015-11-09 07:27:54,853.7448,861.9697,829.07007,830.7151
2015-11-09 07:27:54,871.8396,857.0347,827.4251,830.7151
2015-11-09 07:27:54,861.9697,860.3247,827.4251,827.4251
2015-11-09 07:27:54,868.5496,861.9697,825.78015,829.07007
2015-11-09 07:27:54,866.90466,858.67975,824.13513,830.7151
2015-11-09 07:27:54,865.25964,855.3898,820.8452,837.295
2015-11-09 07:27:54,857.0347,857.0347,822.4902,832.36005
2015-11-09 07:27:54,850.45483,861.9697,820.8452,827.4251
2015-11-09 07:27:54,857.0347,858.67975,815.9103,835.65
2015-11-09 07:27:54,881.7095,855.3898,819.2002,837.295
2015-11-09 07:27:54,873.48456,855.3898,824.13513,840.58496
2015-11-09 07:27:54,858.67975,857.0347,827.4251,837.295
2015-11-09 07:27:54,838.94,857.0347,830.7151,832.36005
2015-11-09 07:27:54,852.0998,860.3247,827.4251,830.7151
2015-11-09 07:27:54,870.1946,858.67975,830.7151,825.78015
2015-11-09 07:27:54,878.4195,857.0347,829.07007,832.36005
2015-11-09 07:27:54,863.6147,858.67975,834.005,832.36005
2015-11-09 07:27:54,848.8099,857.0347,837.295,832.36005
2015-11-09 07:27:54,840.58496,853.7448,834.005,832.36005
2015-11-09 07:27:54,845.5199,858.67975,832.36005,829.07007
2015-11-09 07:27:54,855.3898,860.3247,830.7151,824.13513
2015-11-09 07:27:54,855.3898,857.0347,829.07007,827.4251
2015-11-09 07:27:54,861.9697,860.3247,834.005,827.4251
2015-11-09 07:27:54,863.6147,860.3247,829.07007,809.3303
2015-11-09 07:27:54,878.4195,857.0347,830.7151,832.36005
2015-11-09 07:27:54,845.5199,863.6147,829.07007,820.8452
2015-11-09 07:27:54,853.7448,861.9697,827.4251,824.13513
2015-11-09 07:27:54,853.7448,861.9697,827.4251,824.13513
2015-11-09 07:27:54,850.45483,863.6147,822.4902,829.07007
2015-11-09 07:27:54,857.0347,858.67975,829.07007,824.13513
2015-11-09 07:27:54,852.0998,857.0347,829.07007,824.13513
2015-11-09 07:27:54,850.45483,858.67975,834.005,830.7151
2015-11-09 07:27:54,855.3898,861.9697,832.36005,830.7151
2015-11-09 07:27:54,866.90466,858.67975,832.36005,830.7151
2015-11-09 07:27:54,850.45483,855.3898,832.36005,832.36005
2015-11-09 07:27:54,857.0347,858.67975,829.07007,832.36005
2015-11-09 07:27:54,865.25964,855.3898,830.7151,834.005
2015-11-09 07:27:54,853.7448,853.7448,827.4251,837.295
2015-11-09 07:27:54,861.9697,857.0347,825.78015,837.295
2015-11-09 07:27:54,848.8099,848.8099,827.4251,830.7151
2015-11-09 07:27:54,848.8099,842.2299,829.07007,830.7151
2015-11-09 07:27:54,848.8099,857.0347,825.78015,829.07007
2015-11-09 07:27:54,845.5199,861.9697,829.07007,832.36005
2015-11-09 07:27:54,848.8099,863.6147,824.13513,832.36005
2015-11-09 07:27:54,852.0998,861.9697,825.78015,829.07007
2015-11-09 07:27:54,850.45483,858.67975,822.4902,827.4251
2015-11-09 07:27:54,847.16486,855.3898,827.4251,825.78015
2015-11-09 07:27:54,845.5199,858.67975,827.4251,827.4251
2015-11-09 07:27:54,861.9697,858.67975,822.4902,830.7151
2015-11-09 07:27:54,863.6147,855.3898,829.07007,824.13513
2015-11-09 07:27:54,855.3898,863.6147,824.13513,824.13513
2015-11-09 07:27:54,855.3898,858.67975,827.4251,827.4251
2015-11-09 07:27:54,860.3247,858.67975,827.4251,824.13513
2015-11-09 07:27:54,861.9697,857.0347,825.78015,827.4251
2015-11-09 07:27:54,855.3898,858.67975,829.07007,825.78015
2015-11-09 07:27:54,848.8099,861.9697,825.78015,829.07007
2015-11-09 07:27:54,829.07007,858.67975,834.005,825.78015
2015-11-09 07:27:54,832.36005,866.90466,830.7151,829.07007
2015-11-09 07:27:54,848.8099,860.3247,830.7151,835.65
2015-11-09 07:27:54,855.3898,860.3247,837.295,835.65
2015-11-09 07:27:54,858.67975,855.3898,835.65,842.2299
2015-11-09 07:27:54,866.90466,855.3898,837.295,832.36005
2015-11-09 07:27:54,863.6147,857.0347,835.65,835.65
2015-11-09 07:27:54,857.0347,857.0347,838.94,827.4251
2015-11-09 07:27:54,858.67975,863.6147,835.65,832.36005
2015-11-09 07:27:54,857.0347,865.25964,832.36005,837.295
2015-11-09 07:27:54,837.295,860.3247,837.295,834.005
2015-11-09 07:27:54,840.58496,860.3247,832.36005,834.005
2015-11-09 07:27:54,850.45483,861.9697,832.36005,827.4251
2015-11-09 07:27:54,847.16486,863.6147,827.4251,829.07007
2015-11-09 07:27:54,852.0998,865.25964,825.78015,838.94
2015-11-09 07:27:54,868.5496,855.3898,827.4251,832.36005
2015-11-09 07:27:54,852.0998,857.0347,830.7151,837.295
2015-11-09 07:27:54,852.0998,863.6147,829.07007,838.94
2015-11-09 07:27:54,860.3247,865.25964,825.78015,832.36005
2015-11-09 07:27:54,845.5199,861.9697,829.07007,837.295
2015-11-09 07:27:54,857.0347,858.67975,829.07007,830.7151
2015-11-09 07:27:54,871.8396,858.67975,829.07007,834.005
2015-11-09 07:27:54,865.25964,861.9697,824.13513,824.13513
2015-11-09 07:27:54,858.67975,860.3247,827.4251,822.4902
2015-11-09 07:27:54,860.3247,858.67975,829.07007,832.36005
2015-11-09 07:27:54,843.87494,861.9697,827.4251,825.78015
2015-11-09 07:27:54,850.45483,860.3247,832.36005,837.295
2015-11-09 07:27:54,853.7448,857.0347,830.7151,835.65
2015-11-09 07:27:54,842.2299,861.9697,830.7151,830.7151
2015-11-09 07:27:54,847.16486,863.6147,829.07007,835.65
2015-11-09 07:27:54,837.295,860.3247,829.07007,829.07007
2015-11-09 07:27:54,853.7448,865.25964,824.13513,832.36005
2015-11-09 07:27:54,861.9697,858.67975,827.4251,832.36005
2015-11-09 07:27:54,865.25964,860.3247,825.78015,840.58496
2015-11-09 07:27:55,863.6147,861.9697,825.78015,829.07007
2015-11-09 07:27:55,843.87494,858.67975,830.7151,825.78015
2015-11-09 07:27:55,848.8099,857.0347,830.7151,835.65
2015-11-09 07:27:55,848.8099,860.3247,832.36005,840.58496
2015-11-09 07:27:55,847.16486,860.3247,834.005,830.7151
2015-11-09 07:27:55,858.67975,860.3247,834.005,830.7151
2015-11-09 07:27:55,848.8099,866.90466,835.65,825.78015
2015-11-09 07:27:55,853.7448,865.25964,832.36005,825.78015
2015-11-09 07:27:55,848.8099,857.0347,829.07007,829.07007
2015-11-09 07:27:55,847.16486,861.9697,830.7151,825.78015
2015-11-09 07:27:55,838.94,858.67975,827.4251,830.7151
2015-11-09 07:27:55,840.58496,861.9697,822.4902,822.4902
2015-11-09 07:27:55,848.8099,866.90466,822.4902,829.07007
2015-11-09 07:27:55,845.5199,863.6147,820.8452,820.8452
2015-11-09 07:27:55,837.295,860.3247,822.4902,825.78015
2015-11-09 07:27:55,852.0998,847.16486,822.4902,830.7151
2015-11-09 07:27:55,852.0998,863.6147,822.4902,829.07007
2015-11-09 07:27:55,847.16486,861.9697,822.4902,837.295
2015-11-09 07:27:55,847.16486,861.9697,817.55524,825.78015
2015-11-09 07:27:55,858.67975,865.25964,820.8452,829.07007
2015-11-09 07:27:55,843.87494,857.0347,815.9103,822.4902
2015-11-09 07:27:55,857.0347,861.9697,815.9103,829.07007
2015-11-09 07:27:55,848.8099,858.67975,817.55524,827.4251
2015-11-09 07:27:55,835.65,858.67975,815.9103,832.36005
2015-11-09 07:27:55,843.87494,853.7448,819.2002,840.58496
2015-11-09 07:27:55,847.16486,861.9697,822.4902,834.005
2015-11-09 07:27:55,835.65,866.90466,820.8452,838.94
2015-11-09 07:27:55,840.58496,866.90466,820.8452,827.4251
2015-11-09 07:27:55,842.2299,865.25964,817.55524,824.13513
2015-11-09 07:27:55,848.8099,865.25964,822.4902,827.4251
2015-11-09 07:27:55,863.6147,863.6147,820.8452,829.07007
2015-11-09 07:27:55,863.6147,861.9697,819.2002,829.07007
2015-11-09 07:27:55,858.67975,858.67975,817.55524,829.07007
2015-11-09 07:27:55,840.58496,857.0347,815.9103,829.07007
2015-11-09 07:27:55,838.94,866.90466,817.55524,819.2002
2015-11-09 07:27:55,837.295,863.6147,814.26526,819.2002
2015-11-09 07:27:55,847.16486,860.3247,814.26526,815.9103
2015-11-09 07:27:55,850.45483,857.0347,819.2002,815.9103
2015-11-09 07:27:55,855.3898,858.67975,819.2002,817.55524
2015-11-09 07:27:55,848.8099,858.67975,824.13513,815.9103
2015-11-09 07:27:55,842.2299,861.9697,825.78015,820.8452
2015-11-09 07:27:55,848.8099,857.0347,822.4902,820.8452
2015-11-09 07:27:55,832.36005,852.0998,824.13513,815.9103
2015-11-09 07:27:55,855.3898,858.67975,825.78015,819.2002
2015-11-09 07:27:55,857.0347,852.0998,827.4251,835.65
2015-11-09 07:27:55,840.58496,848.8099,832.36005,822.4902
2015-11-09 07:27:55,835.65,847.16486,835.65,835.65
2015-11-09 07:27:55,838.94,850.45483,837.295,832.36005
2015-11-09 07:27:55,835.65,857.0347,837.295,825.78015
2015-11-09 07:27:55,858.67975,861.9697,834.005,834.005
2015-11-09 07:27:55,855.3898,857.0347,835.65,827.4251
2015-11-09 07:27:55,861.9697,863.6147,830.7151,822.4902
2015-11-09 07:27:55,855.3898,858.67975,830.7151,822.4902
2015-11-09 07:27:55,866.90466,850.45483,829.07007,827.4251
2015-11-09 07:27:55,866.90466,850.45483,832.36005,820.8452
2015-11-09 07:27:55,852.0998,858.67975,834.005,834.005
2015-11-09 07:27:55,840.58496,868.5496,829.07007,820.8452
2015-11-09 07:27:55,855.3898,865.25964,835.65,824.13513
2015-11-09 07:27:55,858.67975,861.9697,835.65,829.07007
2015-11-09 07:27:55,863.6147,861.9697,832.36005,827.4251
2015-11-09 07:27:55,873.48456,861.9697,837.295,834.005
2015-11-09 07:27:55,858.67975,861.9697,840.58496,829.07007
2015-11-09 07:27:55,863.6147,858.67975,837.295,825.78015
2015-11-09 07:27:55,850.45483,852.0998,843.87494,825.78015
2015-11-09 07:27:55,858.67975,858.67975,838.94,824.13513
2015-11-09 07:27:55,858.67975,850.45483,834.005,830.7151
2015-11-09 07:27:55,855.3898,853.7448,837.295,827.4251
2015-11-09 07:27:55,863.6147,850.45483,840.58496,832.36005
2015-11-09 07:27:55,858.67975,857.0347,838.94,834.005
2015-11-09 07:27:55,843.87494,852.0998,840.58496,840.58496
2015-11-09 07:27:55,837.295,852.0998,835.65,830.7151
2015-11-09 07:27:55,838.94,848.8099,837.295,842.2299
2015-11-09 07:27:55,832.36005,852.0998,835.65,835.65
2015-11-09 07:27:55,858.67975,860.3247,834.005,830.7151
2015-11-09 07:27:55,861.9697,853.7448,835.65,842.2299
2015-11-09 07:27:55,847.16486,857.0347,835.65,837.295
2015-11-09 07:27:55,857.0347,853.7448,838.94,837.295
2015-11-09 07:27:55,852.0998,853.7448,842.2299,834.005
2015-11-09 07:27:55,855.3898,853.7448,843.87494,830.7151
2015-11-09 07:27:55,855.3898,857.0347,837.295,830.7151
2015-11-09 07:27:55,840.58496,863.6147,835.65,825.78015
2015-11-09 07:27:55,852.0998,863.6147,840.58496,830.7151
2015-11-09 07:27:55,852.0998,858.67975,840.58496,834.005
2015-11-09 07:27:55,845.5199,853.7448,845.5199,838.94
2015-11-09 07:27:55,853.7448,855.3898,842.2299,837.295
2015-11-09 07:27:55,847.16486,857.0347,840.58496,835.65
2015-11-09 07:27:55,850.45483,853.7448,843.87494,835.65
2015-11-09 07:27:55,858.67975,861.9697,843.87494,838.94
2015-11-09 07:27:55,848.8099,852.0998,840.58496,837.295
2015-11-09 07:27:55,842.2299,860.3247,837.295,830.7151
2015-11-09 07:27:55,845.5199,863.6147,837.295,824.13513
2015-11-09 07:27:55,848.8099,861.9697,838.94,822.4902
2015-11-09 07:27:55,853.7448,852.0998,838.94,840.58496
2015-11-09 07:27:55,842.2299,863.6147,842.2299,834.005
2015-11-09 07:27:55,835.65,855.3898,845.5199,840.58496
2015-11-09 07:27:55,837.295,855.3898,848.8099,834.005
2015-11-09 07:27:55,848.8099,853.7448,847.16486,843.87494
2015-11-09 07:27:55,837.295,852.0998,850.45483,832.36005
2015-11-09 07:27:55,848.8099,858.67975,853.7448,825.78015
2015-11-09 07:27:55,834.005,848.8099,855.3898,837.295
2015-11-09 07:27:55,815.9103,857.0347,857.0347,829.07007
2015-11-09 07:27:55,848.8099,847.16486,858.67975,840.58496
2015-11-09 07:27:55,832.36005,855.3898,855.3898,837.295
2015-11-09 07:27:55,837.295,865.25964,853.7448,827.4251
2015-11-09 07:27:55,857.0347,855.3898,855.3898,835.65
2015-11-09 07:27:55,843.87494,853.7448,855.3898,853.7448
2015-11-09 07:27:55,845.5199,857.0347,857.0347,843.87494
2015-11-09 07:27:55,845.5199,858.67975,858.67975,837.295
2015-11-09 07:27:55,845.5199,853.7448,857.0347,837.295
2015-11-09 07:27:55,837.295,858.67975,850.45483,830.7151
2015-11-09 07:27:55,838.94,838.94,857.0347,842.2299
2015-11-09 07:27:55,832.36005,857.0347,848.8099,829.07007
2015-11-09 07:27:55,838.94,855.3898,847.16486,842.2299
2015-11-09 07:27:55,837.295,855.3898,853.7448,827.4251
2015-11-09 07:27:55,832.36005,858.67975,848.8099,812.6203
2015-11-09 07:27:55,845.5199,852.0998,847.16486,817.55524
2015-11-09 07:27:55,840.58496,855.3898,843.87494,810.9753
2015-11-09 07:27:55,843.87494,853.7448,845.5199,822.4902
2015-11-09 07:27:55,843.87494,855.3898,847.16486,817.55524
2015-11-09 07:27:55,829.07007,845.5199,845.5199,822.4902
2015-11-09 07:27:55,838.94,860.3247,845.5199,817.55524
2015-11-09 07:27:55,830.7151,852.0998,847.16486,824.13513
2015-11-09 07:27:55,838.94,845.5199,852.0998,822.4902
2015-11-09 07:27:55,845.5199,852.0998,848.8099,815.9103
2015-11-09 07:27:55,837.295,843.87494,852.0998,827.4251
2015-11-09 07:27:55,842.2299,855.3898,850.45483,820.8452
2015-11-09 07:27:55,852.0998,852.0998,845.5199,837.295
2015-11-09 07:27:55,838.94,853.7448,855.3898,830.7151
2015-11-09 07:27:55,847.16486,855.3898,850.45483,829.07007
2015-11-09 07:27:55,863.6147,861.9697,850.45483,843.87494
2015-11-09 07:27:55,832.36005,852.0998,855.3898,840.58496
2015-11-09 07:27:55,834.005,858.67975,853.7448,827.4251
2015-11-09 07:27:55,832.36005,853.7448,855.3898,830.7151
2015-11-09 07:27:55,837.295,857.0347,853.7448,827.4251
2015-11-09 07:27:55,840.58496,861.9697,850.45483,820.8452
2015-11-09 07:27:55,845.5199,857.0347,853.7448,822.4902
2015-11-09 07:27:55,845.5199,855.3898,855.3898,830.7151
2015-11-09 07:27:55,835.65,858.67975,861.9697,819.2002
2015-11-09 07:27:55,853.7448,857.0347,858.67975,829.07007
2015-11-09 07:27:55,843.87494,857.0347,855.3898,827.4251
2015-11-09 07:27:55,830.7151,855.3898,860.3247,835.65
2015-11-09 07:27:55,863.6147,848.8099,857.0347,843.87494
2015-11-09 07:27:55,860.3247,858.67975,857.0347,835.65
2015-11-09 07:27:55,853.7448,858.67975,847.16486,832.36005
2015-11-09 07:27:55,852.0998,860.3247,848.8099,804.3954
2015-11-09 07:27:55,832.36005,857.0347,855.3898,824.13513
2015-11-09 07:27:55,814.26526,860.3247,848.8099,804.3954
2015-11-09 07:27:55,829.07007,861.9697,847.16486,796.1705
2015-11-09 07:27:55,819.2002,845.5199,843.87494,804.3954
2015-11-09 07:27:55,834.005,848.8099,840.58496,815.9103
2015-11-09 07:27:55,843.87494,845.5199,852.0998,850.45483
2015-11-09 07:27:55,838.94,855.3898,822.4902,857.0347
2015-11-09 07:27:55,888.28937,857.0347,834.005,858.67975
2015-11-09 07:27:55,834.005,855.3898,824.13513,830.7151
2015-11-09 07:27:55,865.25964,848.8099,829.07007,838.94
2015-11-09 07:27:55,842.2299,842.2299,843.87494,835.65
2015-11-09 07:27:55,794.5255,861.9697,834.005,807.68536
2015-11-09 07:27:55,766.56085,875.1295,845.5199,761.6259
2015-11-09 07:27:55,787.94556,873.48456,832.36005,781.36566
2015-11-09 07:27:55,764.91583,858.67975,855.3898,774.78577
2015-11-09 07:27:55,779.7207,861.9697,829.07007,792.88055
2015-11-09 07:27:55,884.99945,861.9697,829.07007,845.5199
2015-11-09 07:27:55,806.04034,868.5496,842.2299,766.56085
2015-11-09 07:27:55,832.36005,852.0998,830.7151,792.88055
2015-11-09 07:27:55,648.12225,868.5496,857.0347,713.92145
2015-11-09 07:27:55,700.7616,835.65,809.3303,740.24115
2015-11-09 07:27:55,806.04034,878.4195,822.4902,740.24115
2015-11-09 07:27:55,700.7616,911.3191,829.07007,661.2821
2015-11-09 07:27:55,832.36005,832.36005,814.26526,740.24115
2015-11-09 07:27:55,753.401,881.7095,837.295,713.92145
2015-11-09 07:27:55,700.7616,852.0998,797.8155,740.24115
2015-11-09 07:27:55,779.7207,888.28937,804.3954,740.24115
2015-11-09 07:27:55,700.7616,898.15924,842.2299,687.6018
2015-11-09 07:27:55,806.04034,832.36005,812.6203,740.24115
2015-11-09 07:27:55,753.401,825.78015,858.67975,687.6018
2015-11-09 07:27:55,779.7207,858.67975,802.7504,740.24115
2015-11-09 07:27:55,779.7207,881.7095,769.8508,740.24115
2015-11-09 07:27:55,674.44196,870.1946,850.45483,621.80255
2015-11-09 07:27:55,779.7207,852.0998,809.3303,740.24115
2015-11-09 07:27:55,832.36005,801.1054,817.55524,766.56085
2015-11-09 07:27:55,648.12225,845.5199,842.2299,648.12225
2015-11-09 07:27:55,674.44196,848.8099,794.5255,713.92145
2015-11-09 07:27:55,700.7616,840.58496,781.36566,733.66125
2015-11-09 07:27:55,727.0813,857.0347,825.78015,707.34155
2015-11-09 07:27:55,832.36005,819.2002,801.1054,740.24115
2015-11-09 07:27:55,595.4829,876.77454,822.4902,615.22266
2015-11-09 07:27:55,700.7616,857.0347,820.8452,654.70215
2015-11-09 07:27:55,700.7616,845.5199,802.7504,687.6018
2015-11-09 07:27:55,753.401,824.13513,842.2299,707.34155
2015-11-09 07:27:55,727.0813,835.65,838.94,621.80255
2015-11-09 07:27:55,674.44196,812.6203,838.94,588.90295
2015-11-09 07:27:55,674.44196,866.90466,837.295,588.90295
2015-11-09 07:27:55,806.04034,822.4902,802.7504,759.9809
2015-11-09 07:27:55,779.7207,847.16486,783.0106,707.34155
2015-11-09 07:27:55,575.7431,863.6147,835.65,602.0628
2015-11-09 07:27:55,759.9809,850.45483,792.88055,654.70215
2015-11-09 07:27:55,766.56085,810.9753,830.7151,707.34155
2015-11-09 07:27:55,759.9809,827.4251,830.7151,707.34155
2015-11-09 07:27:55,727.0813,825.78015,838.94,707.34155
2015-11-09 07:27:55,648.12225,861.9697,838.94,654.70215
2015-11-09 07:27:55,667.862,847.16486,843.87494,628.3825
2015-11-09 07:27:55,733.66125,857.0347,784.65564,707.34155
2015-11-09 07:27:55,707.34155,848.8099,801.1054,707.34155
2015-11-09 07:27:55,733.66125,852.0998,783.0106,733.66125
2015-11-09 07:27:55,766.56085,843.87494,842.2299,733.66125
2015-11-09 07:27:55,720.5014,827.4251,829.07007,707.34155
2015-11-09 07:27:55,792.88055,875.1295,792.88055,759.9809
2015-11-09 07:27:55,720.5014,847.16486,814.26526,681.02185
2015-11-09 07:27:55,733.66125,810.9753,840.58496,681.02185
2015-11-09 07:27:55,694.1817,834.005,850.45483,602.0628
2015-11-09 07:27:55,707.34155,814.26526,868.5496,628.3825
2015-11-09 07:27:55,746.8211,857.0347,796.1705,707.34155
2015-11-09 07:27:55,720.5014,830.7151,807.68536,733.66125
2015-11-09 07:27:55,667.862,857.0347,802.7504,654.70215
2015-11-09 07:27:55,720.5014,830.7151,812.6203,654.70215
2015-11-09 07:27:55,667.862,847.16486,835.65,602.0628
2015-11-09 07:27:55,746.8211,866.90466,791.23553,681.02185
2015-11-09 07:27:55,681.02185,824.13513,876.77454,654.70215
2015-11-09 07:27:55,681.02185,853.7448,806.04034,654.70215
2015-11-09 07:27:55,720.5014,817.55524,840.58496,628.3825
2015-11-09 07:27:55,733.66125,827.4251,829.07007,733.66125
2015-11-09 07:27:55,707.34155,810.9753,820.8452,733.66125
2015-11-09 07:27:55,707.34155,850.45483,829.07007,681.02185
2015-11-09 07:27:55,746.8211,814.26526,829.07007,733.66125
2015-11-09 07:27:55,694.1817,883.35443,819.2002,602.0628
2015-11-09 07:27:55,727.0813,861.9697,824.13513,654.70215
2015-11-09 07:27:55,759.9809,848.8099,840.58496,773.14075
2015-11-09 07:27:55,759.9809,835.65,827.4251,667.862
2015-11-09 07:27:55,786.3006,804.3954,824.13513,746.8211
2015-11-09 07:27:55,753.401,858.67975,817.55524,733.66125
2015-11-09 07:27:55,694.1817,840.58496,822.4902,681.02185
2015-11-09 07:27:55,720.5014,812.6203,861.9697,641.54236
2015-11-09 07:27:55,773.14075,824.13513,829.07007,720.5014
2015-11-09 07:27:55,727.0813,842.2299,832.36005,707.34155
2015-11-09 07:27:55,720.5014,857.0347,832.36005,733.66125
2015-11-09 07:27:55,727.0813,837.295,830.7151,667.862
2015-11-09 07:27:55,773.14075,843.87494,792.88055,707.34155
2015-11-09 07:27:55,713.92145,829.07007,860.3247,667.862
2015-11-09 07:27:55,779.7207,827.4251,830.7151,707.34155
2015-11-09 07:27:55,707.34155,873.48456,804.3954,667.862
2015-11-09 07:27:55,759.9809,822.4902,842.2299,759.9809
2015-11-09 07:27:55,720.5014,848.8099,861.9697,707.34155
2015-11-09 07:27:55,720.5014,838.94,842.2299,654.70215
2015-11-09 07:27:55,753.401,834.005,822.4902,865.25964
2015-11-09 07:27:55,700.7616,832.36005,894.8693,707.34155
2015-11-09 07:27:55,740.24115,815.9103,881.7095,707.34155
2015-11-09 07:27:55,733.66125,855.3898,842.2299,812.6203
2015-11-09 07:27:55,720.5014,868.5496,855.3898,812.6203
2015-11-09 07:27:55,753.401,858.67975,822.4902,759.9809
2015-11-09 07:27:55,753.401,827.4251,888.28937,865.25964
2015-11-09 07:27:55,694.1817,837.295,908.0292,707.34155
2015-11-09 07:27:55,727.0813,835.65,842.2299,707.34155
2015-11-09 07:27:55,733.66125,852.0998,875.1295,786.3006
2015-11-09 07:27:55,753.401,845.5199,855.3898,838.94
2015-11-09 07:27:55,746.8211,812.6203,908.0292,812.6203
2015-11-09 07:27:55,812.6203,820.8452,861.9697,812.6203
2015-11-09 07:27:55,852.0998,835.65,829.07007,917.89905
2015-11-09 07:27:55,853.7448,858.67975,835.65,829.07007
2015-11-09 07:27:55,787.94556,878.4195,832.36005,802.7504
2015-11-09 07:27:55,814.26526,871.8396,845.5199,802.7504
2015-11-09 07:27:55,814.26526,886.6444,796.1705,881.7095
2015-11-09 07:27:55,801.1054,876.77454,875.1295,829.07007
2015-11-09 07:27:55,880.06445,830.7151,845.5199,908.0292
2015-11-09 07:27:55,853.7448,830.7151,871.8396,855.3898
2015-11-09 07:27:55,906.38416,848.8099,815.9103,908.0292
2015-11-09 07:27:55,932.70386,837.295,838.94,934.3488
2015-11-09 07:27:55,827.4251,843.87494,861.9697,855.3898
2015-11-09 07:27:55,866.90466,860.3247,822.4902,934.3488
2015-11-09 07:27:55,893.2243,845.5199,832.36005,881.7095
2015-11-09 07:27:55,840.58496,883.35443,802.7504,908.0292
2015-11-09 07:27:55,814.26526,866.90466,868.5496,881.7095
2015-11-09 07:27:55,866.90466,842.2299,858.67975,881.7095
2015-11-09 07:27:55,827.4251,883.35443,812.6203,829.07007
2015-11-09 07:27:55,880.06445,860.3247,829.07007,908.0292
2015-11-09 07:27:56,919.544,840.58496,825.78015,973.82837
2015-11-09 07:27:56,932.70386,848.8099,855.3898,960.6685
2015-11-09 07:27:56,880.06445,829.07007,881.7095,914.6091
2015-11-09 07:27:56,880.06445,894.8693,792.88055,914.6091
2015-11-09 07:27:56,814.26526,873.48456,868.5496,881.7095
2015-11-09 07:27:56,853.7448,843.87494,852.0998,868.5496
2015-11-09 07:27:56,945.8637,840.58496,825.78015,1013.30786
2015-11-09 07:27:56,880.06445,830.7151,855.3898,901.4492
2015-11-09 07:27:56,880.06445,860.3247,825.78015,914.6091
2015-11-09 07:27:56,959.02356,843.87494,806.04034,1013.30786
2015-11-09 07:27:56,919.544,832.36005,861.9697,921.18896
2015-11-09 07:27:56,893.2243,855.3898,809.3303,921.18896
2015-11-09 07:27:56,866.90466,871.8396,835.65,894.8693
2015-11-09 07:27:56,853.7448,858.67975,861.9697,881.7095
2015-11-09 07:27:56,893.2243,855.3898,832.36005,921.18896
2015-11-09 07:27:56,919.544,866.90466,796.1705,1019.8878
2015-11-09 07:27:56,880.06445,850.45483,852.0998,954.0886
2015-11-09 07:27:56,896.5143,857.0347,825.78015,917.89905
2015-11-09 07:27:56,876.77454,863.6147,850.45483,916.254
2015-11-09 07:27:56,824.13513,868.5496,847.16486,865.25964
2015-11-09 07:27:56,824.13513,855.3898,842.2299,852.0998
2015-11-09 07:27:56,939.28375,852.0998,827.4251,960.6685
2015-11-09 07:27:56,912.9641,865.25964,807.68536,952.4436
2015-11-09 07:27:56,896.5143,870.1946,819.2002,931.0589
2015-11-09 07:27:56,886.6444,876.77454,814.26526,922.834
2015-11-09 07:27:56,837.295,893.2243,822.4902,866.90466
2015-11-09 07:27:56,781.36566,876.77454,845.5199,810.9753
2015-11-09 07:27:56,807.68536,837.295,858.67975,806.04034
2015-11-09 07:27:56,939.28375,858.67975,791.23553,972.1834
2015-11-09 07:27:56,906.38416,850.45483,824.13513,942.5737
2015-11-09 07:27:56,919.544,861.9697,802.7504,945.8637
2015-11-09 07:27:56,909.67413,863.6147,827.4251,944.2187
2015-11-09 07:27:56,837.295,853.7448,840.58496,866.90466
2015-11-09 07:27:56,875.1295,853.7448,822.4902,929.4139
2015-11-09 07:27:56,880.06445,861.9697,820.8452,924.47894
2015-11-09 07:27:56,861.9697,866.90466,822.4902,909.67413
2015-11-09 07:27:56,835.65,857.0347,837.295,886.6444
2015-11-09 07:27:56,868.5496,855.3898,824.13513,906.38416
2015-11-09 07:27:56,871.8396,858.67975,819.2002,909.67413
2015-11-09 07:27:56,843.87494,866.90466,825.78015,884.99945
2015-11-09 07:27:56,857.0347,863.6147,825.78015,893.2243
2015-11-09 07:27:56,871.8396,866.90466,824.13513,911.3191
2015-11-09 07:27:56,865.25964,863.6147,827.4251,909.67413
2015-11-09 07:27:56,848.8099,868.5496,830.7151,884.99945
2015-11-09 07:27:56,858.67975,866.90466,830.7151,886.6444
2015-11-09 07:27:56,850.45483,871.8396,825.78015,878.4195
2015-11-09 07:27:56,832.36005,868.5496,832.36005,878.4195
2015-11-09 07:27:56,835.65,861.9697,838.94,883.35443
2015-11-09 07:27:56,832.36005,876.77454,832.36005,884.99945
2015-11-09 07:27:56,820.8452,866.90466,838.94,898.15924
2015-11-09 07:27:56,853.7448,855.3898,843.87494,940.9288
2015-11-09 07:27:56,845.5199,863.6147,843.87494,929.4139
2015-11-09 07:27:56,843.87494,860.3247,847.16486,945.8637
2015-11-09 07:27:56,842.2299,861.9697,848.8099,940.9288
2015-11-09 07:27:56,827.4251,860.3247,850.45483,937.6388
2015-11-09 07:27:56,817.55524,863.6147,852.0998,952.4436
2015-11-09 07:27:56,834.005,861.9697,848.8099,955.7336
2015-11-09 07:27:56,829.07007,868.5496,847.16486,940.9288
2015-11-09 07:27:56,827.4251,861.9697,850.45483,949.1537
2015-11-09 07:27:56,830.7151,861.9697,850.45483,952.4436
2015-11-09 07:27:56,814.26526,860.3247,850.45483,954.0886
2015-11-09 07:27:56,820.8452,870.1946,847.16486,957.37854
2015-11-09 07:27:56,829.07007,868.5496,850.45483,963.9585
2015-11-09 07:27:56,827.4251,857.0347,847.16486,957.37854
2015-11-09 07:27:56,829.07007,863.6147,848.8099,954.0886
2015-11-09 07:27:56,835.65,866.90466,848.8099,955.7336
2015-11-09 07:27:56,838.94,870.1946,845.5199,952.4436
2015-11-09 07:27:56,842.2299,863.6147,847.16486,967.2484
2015-11-09 07:27:56,847.16486,868.5496,847.16486,965.60345
2015-11-09 07:27:56,847.16486,868.5496,845.5199,963.9585
2015-11-09 07:27:56,843.87494,866.90466,847.16486,963.9585
2015-11-09 07:27:56,840.58496,865.25964,845.5199,968.89343
2015-11-09 07:27:56,824.13513,857.0347,842.2299,955.7336
2015-11-09 07:27:56,824.13513,861.9697,843.87494,960.6685
2015-11-09 07:27:56,819.2002,870.1946,845.5199,955.7336
2015-11-09 07:27:56,832.36005,866.90466,848.8099,967.2484
2015-11-09 07:27:56,825.78015,861.9697,847.16486,963.9585
2015-11-09 07:27:56,827.4251,858.67975,842.2299,960.6685
2015-11-09 07:27:56,834.005,861.9697,843.87494,965.60345
2015-11-09 07:27:56,838.94,863.6147,847.16486,959.02356
2015-11-09 07:27:56,825.78015,860.3247,845.5199,955.7336
2015-11-09 07:27:56,835.65,868.5496,842.2299,960.6685
2015-11-09 07:27:56,840.58496,860.3247,843.87494,967.2484
2015-11-09 07:27:56,825.78015,863.6147,845.5199,952.4436
2015-11-09 07:27:56,829.07007,861.9697,840.58496,957.37854
2015-11-09 07:27:56,824.13513,860.3247,843.87494,945.8637
2015-11-09 07:27:56,822.4902,855.3898,842.2299,950.79865
2015-11-09 07:27:56,829.07007,855.3898,843.87494,952.4436
2015-11-09 07:27:56,842.2299,850.45483,852.0998,965.60345
2015-11-09 07:27:56,827.4251,865.25964,850.45483,955.7336
2015-11-09 07:27:56,824.13513,863.6147,853.7448,950.79865
2015-11-09 07:27:56,830.7151,865.25964,853.7448,954.0886
2015-11-09 07:27:56,835.65,857.0347,858.67975,957.37854
2015-11-09 07:27:56,835.65,855.3898,858.67975,955.7336
2015-11-09 07:27:56,835.65,863.6147,861.9697,952.4436
2015-11-09 07:27:56,837.295,857.0347,865.25964,957.37854
2015-11-09 07:27:56,834.005,858.67975,865.25964,944.2187
2015-11-09 07:27:56,832.36005,855.3898,868.5496,949.1537
2015-11-09 07:27:56,834.005,863.6147,865.25964,950.79865
2015-11-09 07:27:56,829.07007,857.0347,865.25964,955.7336
2015-11-09 07:27:56,837.295,853.7448,861.9697,957.37854
2015-11-09 07:27:56,850.45483,860.3247,863.6147,959.02356
2015-11-09 07:27:56,848.8099,861.9697,860.3247,957.37854
2015-11-09 07:27:56,850.45483,860.3247,861.9697,955.7336
2015-11-09 07:27:56,848.8099,860.3247,860.3247,960.6685
2015-11-09 07:27:56,838.94,853.7448,860.3247,952.4436
2015-11-09 07:27:56,834.005,855.3898,858.67975,949.1537
2015-11-09 07:27:56,834.005,861.9697,858.67975,944.2187
2015-11-09 07:27:56,829.07007,868.5496,855.3898,944.2187
2015-11-09 07:27:56,838.94,857.0347,855.3898,950.79865
2015-11-09 07:27:56,843.87494,855.3898,858.67975,959.02356
2015-11-09 07:27:56,852.0998,857.0347,855.3898,959.02356
2015-11-09 07:27:56,842.2299,858.67975,845.5199,843.87494
2015-11-09 07:27:56,843.87494,863.6147,838.94,847.16486
2015-11-09 07:27:56,843.87494,860.3247,838.94,842.2299
2015-11-09 07:27:56,840.58496,858.67975,835.65,840.58496
2015-11-09 07:27:56,834.005,855.3898,837.295,838.94
2015-11-09 07:27:56,834.005,860.3247,840.58496,837.295
2015-11-09 07:27:56,832.36005,860.3247,837.295,842.2299
2015-11-09 07:27:56,847.16486,857.0347,837.295,847.16486
2015-11-09 07:27:56,848.8099,863.6147,829.07007,840.58496
2015-11-09 07:27:56,843.87494,855.3898,827.4251,838.94
2015-11-09 07:27:56,845.5199,857.0347,829.07007,837.295
2015-11-09 07:27:56,837.295,857.0347,825.78015,837.295
2015-11-09 07:27:56,847.16486,855.3898,827.4251,838.94
2015-11-09 07:27:56,843.87494,858.67975,822.4902,832.36005
2015-11-09 07:27:56,843.87494,860.3247,824.13513,830.7151
2015-11-09 07:27:56,845.5199,860.3247,819.2002,829.07007
2015-11-09 07:27:56,834.005,857.0347,815.9103,817.55524
2015-11-09 07:27:56,832.36005,857.0347,817.55524,817.55524
2015-11-09 07:27:56,832.36005,852.0998,820.8452,820.8452
2015-11-09 07:27:56,832.36005,855.3898,814.26526,827.4251
2015-11-09 07:27:56,838.94,858.67975,825.78015,825.78015
2015-11-09 07:27:56,842.2299,855.3898,827.4251,830.7151
2015-11-09 07:27:56,829.07007,850.45483,832.36005,830.7151
2015-11-09 07:27:56,824.13513,848.8099,837.295,829.07007
2015-11-09 07:27:56,830.7151,855.3898,835.65,829.07007
2015-11-09 07:27:56,830.7151,855.3898,832.36005,829.07007
2015-11-09 07:27:56,843.87494,857.0347,834.005,840.58496
2015-11-09 07:27:56,843.87494,857.0347,835.65,835.65
2015-11-09 07:27:56,842.2299,855.3898,834.005,840.58496
2015-11-09 07:27:56,843.87494,857.0347,832.36005,838.94
2015-11-09 07:27:56,837.295,853.7448,834.005,830.7151
2015-11-09 07:27:56,838.94,853.7448,832.36005,837.295
2015-11-09 07:27:56,835.65,858.67975,832.36005,830.7151
2015-11-09 07:27:56,827.4251,853.7448,835.65,825.78015
2015-11-09 07:27:56,830.7151,853.7448,832.36005,824.13513
2015-11-09 07:27:56,837.295,852.0998,827.4251,827.4251
2015-11-09 07:27:56,835.65,858.67975,830.7151,824.13513
2015-11-09 07:27:56,852.0998,863.6147,830.7151,827.4251
2015-11-09 07:27:56,853.7448,860.3247,830.7151,837.295
2015-11-09 07:27:56,845.5199,857.0347,832.36005,830.7151
2015-11-09 07:27:56,840.58496,855.3898,832.36005,835.65
2015-11-09 07:27:56,845.5199,855.3898,832.36005,832.36005
2015-11-09 07:27:56,845.5199,855.3898,835.65,830.7151
2015-11-09 07:27:56,843.87494,853.7448,835.65,832.36005
2015-11-09 07:27:56,848.8099,850.45483,838.94,834.005
2015-11-09 07:27:56,843.87494,855.3898,840.58496,840.58496
2015-11-09 07:27:56,847.16486,855.3898,842.2299,835.65
2015-11-09 07:27:56,847.16486,852.0998,843.87494,834.005
2015-11-09 07:27:56,850.45483,857.0347,845.5199,837.295
2015-11-09 07:27:57,850.45483,857.0347,848.8099,837.295
2015-11-09 07:27:57,843.87494,860.3247,848.8099,840.58496
2015-11-09 07:27:57,850.45483,863.6147,842.2299,838.94
2015-11-09 07:27:57,850.45483,858.67975,845.5199,837.295
2015-11-09 07:27:57,848.8099,858.67975,845.5199,834.005
2015-11-09 07:27:57,847.16486,855.3898,843.87494,834.005
2015-11-09 07:27:57,840.58496,858.67975,845.5199,832.36005
2015-11-09 07:27:57,837.295,860.3247,842.2299,834.005
2015-11-09 07:27:57,838.94,860.3247,837.295,824.13513
2015-11-09 07:27:57,842.2299,861.9697,835.65,824.13513
2015-11-09 07:27:57,842.2299,847.16486,838.94,827.4251
2015-11-09 07:27:57,837.295,855.3898,837.295,822.4902
2015-11-09 07:27:57,834.005,861.9697,837.295,830.7151
2015-11-09 07:27:57,832.36005,858.67975,835.65,827.4251
2015-11-09 07:27:57,834.005,855.3898,840.58496,827.4251
2015-11-09 07:27:57,832.36005,855.3898,843.87494,819.2002
2015-11-09 07:27:57,838.94,855.3898,838.94,822.4902
2015-11-09 07:27:57,842.2299,861.9697,834.005,822.4902
2015-11-09 07:27:57,840.58496,858.67975,829.07007,815.9103
2015-11-09 07:27:57,847.16486,860.3247,829.07007,825.78015
2015-11-09 07:27:57,861.9697,865.25964,830.7151,820.8452
2015-11-09 07:27:57,852.0998,865.25964,830.7151,817.55524
2015-11-09 07:27:57,855.3898,863.6147,832.36005,819.2002
2015-11-09 07:27:57,845.5199,857.0347,835.65,824.13513
2015-11-09 07:27:57,834.005,855.3898,837.295,827.4251
2015-11-09 07:27:57,835.65,853.7448,838.94,832.36005
2015-11-09 07:27:57,832.36005,850.45483,835.65,832.36005
2015-11-09 07:27:57,825.78015,857.0347,834.005,827.4251
2015-11-09 07:27:57,827.4251,857.0347,834.005,824.13513
2015-11-09 07:27:57,832.36005,861.9697,829.07007,829.07007
2015-11-09 07:27:57,840.58496,858.67975,830.7151,825.78015
2015-11-09 07:27:57,850.45483,855.3898,825.78015,827.4251
2015-11-09 07:27:57,852.0998,860.3247,829.07007,834.005
2015-11-09 07:27:57,852.0998,860.3247,829.07007,832.36005
2015-11-09 07:27:57,850.45483,857.0347,829.07007,837.295
2015-11-09 07:27:57,847.16486,857.0347,832.36005,834.005
2015-11-09 07:27:57,855.3898,858.67975,830.7151,837.295
2015-11-09 07:27:57,848.8099,860.3247,834.005,832.36005
2015-11-09 07:27:57,842.2299,857.0347,835.65,829.07007
2015-11-09 07:27:57,850.45483,857.0347,834.005,830.7151
2015-11-09 07:27:57,848.8099,860.3247,830.7151,827.4251
2015-11-09 07:27:57,855.3898,855.3898,834.005,838.94
2015-11-09 07:27:57,852.0998,853.7448,832.36005,822.4902
2015-11-09 07:27:57,847.16486,852.0998,835.65,829.07007
2015-11-09 07:27:57,853.7448,857.0347,834.005,829.07007
2015-11-09 07:27:57,852.0998,860.3247,830.7151,822.4902
2015-11-09 07:27:57,848.8099,861.9697,829.07007,832.36005
2015-11-09 07:27:57,837.295,860.3247,830.7151,830.7151
2015-11-09 07:27:57,830.7151,857.0347,827.4251,829.07007
2015-11-09 07:27:57,832.36005,857.0347,832.36005,834.005
2015-11-09 07:27:57,829.07007,855.3898,834.005,827.4251
2015-11-09 07:27:57,847.16486,853.7448,834.005,827.4251
2015-11-09 07:27:57,845.5199,853.7448,835.65,830.7151
2015-11-09 07:27:57,848.8099,853.7448,832.36005,827.4251
2015-11-09 07:27:57,860.3247,855.3898,832.36005,832.36005
2015-11-09 07:27:57,842.2299,853.7448,830.7151,837.295
2015-11-09 07:27:57,848.8099,853.7448,829.07007,837.295
2015-11-09 07:27:57,848.8099,853.7448,829.07007,835.65
2015-11-09 07:27:57,852.0998,860.3247,829.07007,832.36005
2015-11-09 07:27:57,855.3898,861.9697,829.07007,832.36005
2015-11-09 07:27:57,845.5199,860.3247,829.07007,832.36005
2015-11-09 07:27:57,835.65,861.9697,824.13513,830.7151
2015-11-09 07:27:57,840.58496,855.3898,825.78015,829.07007
2015-11-09 07:27:57,847.16486,860.3247,824.13513,820.8452
2015-11-09 07:27:57,855.3898,858.67975,824.13513,825.78015
2015-11-09 07:27:57,857.0347,858.67975,820.8452,819.2002
2015-11-09 07:27:57,855.3898,860.3247,817.55524,815.9103
2015-11-09 07:27:57,853.7448,858.67975,820.8452,817.55524
2015-11-09 07:27:57,850.45483,860.3247,819.2002,814.26526
2015-11-09 07:27:57,830.7151,850.45483,824.13513,820.8452
2015-11-09 07:27:57,822.4902,853.7448,820.8452,820.8452
2015-11-09 07:27:57,834.005,858.67975,820.8452,824.13513
2015-11-09 07:27:57,842.2299,857.0347,819.2002,827.4251
2015-11-09 07:27:57,842.2299,853.7448,819.2002,829.07007
2015-11-09 07:27:57,842.2299,852.0998,820.8452,827.4251
2015-11-09 07:27:57,834.005,857.0347,822.4902,820.8452
2015-11-09 07:27:57,832.36005,855.3898,822.4902,824.13513
2015-11-09 07:27:57,847.16486,857.0347,819.2002,827.4251
2015-11-09 07:27:57,847.16486,853.7448,822.4902,832.36005
2015-11-09 07:27:57,845.5199,853.7448,819.2002,825.78015
2015-11-09 07:27:57,843.87494,858.67975,824.13513,822.4902
2015-11-09 07:27:57,847.16486,857.0347,822.4902,824.13513
2015-11-09 07:27:57,845.5199,858.67975,822.4902,827.4251
2015-11-09 07:27:57,842.2299,857.0347,824.13513,830.7151
2015-11-09 07:27:57,848.8099,855.3898,824.13513,829.07007
2015-11-09 07:27:57,835.65,858.67975,822.4902,825.78015
2015-11-09 07:27:57,835.65,855.3898,829.07007,830.7151
2015-11-09 07:27:57,850.45483,861.9697,827.4251,829.07007
2015-11-09 07:27:57,852.0998,857.0347,830.7151,829.07007
2015-11-09 07:27:57,843.87494,858.67975,827.4251,824.13513
2015-11-09 07:27:57,847.16486,860.3247,825.78015,834.005
2015-11-09 07:27:57,832.36005,857.0347,825.78015,827.4251
2015-11-09 07:27:57,840.58496,863.6147,819.2002,820.8452
2015-11-09 07:27:57,852.0998,860.3247,822.4902,825.78015
2015-11-09 07:27:57,855.3898,858.67975,822.4902,824.13513
2015-11-09 07:27:57,850.45483,853.7448,827.4251,829.07007
2015-11-09 07:27:57,840.58496,855.3898,829.07007,825.78015
2015-11-09 07:27:57,837.295,848.8099,827.4251,834.005
2015-11-09 07:27:57,830.7151,855.3898,830.7151,830.7151
2015-11-09 07:27:57,832.36005,860.3247,825.78015,822.4902
2015-11-09 07:27:57,843.87494,858.67975,827.4251,830.7151
2015-11-09 07:27:57,842.2299,861.9697,825.78015,822.4902
2015-11-09 07:27:57,847.16486,858.67975,822.4902,822.4902
2015-11-09 07:27:57,848.8099,857.0347,824.13513,827.4251
2015-11-09 07:27:57,845.5199,860.3247,827.4251,829.07007
2015-11-09 07:27:57,845.5199,853.7448,825.78015,834.005
2015-11-09 07:27:57,842.2299,860.3247,829.07007,830.7151
2015-11-09 07:27:57,847.16486,855.3898,829.07007,835.65
2015-11-09 07:27:57,845.5199,857.0347,829.07007,825.78015
2015-11-09 07:27:57,845.5199,852.0998,829.07007,827.4251
2015-11-09 07:27:57,842.2299,857.0347,827.4251,820.8452
2015-11-09 07:27:57,850.45483,857.0347,827.4251,814.26526
2015-11-09 07:27:57,842.2299,853.7448,827.4251,814.26526
2015-11-09 07:27:57,840.58496,853.7448,830.7151,820.8452
2015-11-09 07:27:57,838.94,848.8099,830.7151,827.4251
2015-11-09 07:27:57,834.005,857.0347,834.005,822.4902
2015-11-09 07:27:57,843.87494,853.7448,834.005,829.07007
2015-11-09 07:27:57,842.2299,855.3898,837.295,827.4251
2015-11-09 07:27:57,848.8099,855.3898,835.65,832.36005
2015-11-09 07:27:57,863.6147,857.0347,835.65,834.005
2015-11-09 07:27:57,860.3247,857.0347,837.295,837.295
2015-11-09 07:27:57,848.8099,853.7448,837.295,837.295
2015-11-09 07:27:57,842.2299,860.3247,837.295,824.13513
2015-11-09 07:27:57,847.16486,857.0347,837.295,832.36005
2015-11-09 07:27:57,852.0998,857.0347,837.295,835.65
2015-11-09 07:27:57,857.0347,852.0998,838.94,838.94
2015-11-09 07:27:57,850.45483,855.3898,835.65,834.005
2015-11-09 07:27:57,857.0347,857.0347,834.005,829.07007
2015-11-09 07:27:57,866.90466,852.0998,829.07007,832.36005
2015-11-09 07:27:57,866.90466,855.3898,824.13513,830.7151
2015-11-09 07:27:57,850.45483,855.3898,827.4251,822.4902
2015-11-09 07:27:57,842.2299,858.67975,825.78015,815.9103
2015-11-09 07:27:57,835.65,855.3898,825.78015,815.9103
2015-11-09 07:27:57,845.5199,858.67975,829.07007,817.55524
2015-11-09 07:27:57,843.87494,850.45483,830.7151,832.36005
2015-11-09 07:27:57,835.65,857.0347,832.36005,832.36005
2015-11-09 07:27:57,838.94,860.3247,830.7151,837.295
2015-11-09 07:27:57,847.16486,852.0998,829.07007,835.65
2015-11-09 07:27:57,857.0347,855.3898,825.78015,834.005
2015-11-09 07:27:57,852.0998,852.0998,827.4251,829.07007
2015-11-09 07:27:57,852.0998,857.0347,827.4251,824.13513
2015-11-09 07:27:57,855.3898,853.7448,824.13513,824.13513
2015-11-09 07:27:57,847.16486,853.7448,824.13513,820.8452
2015-11-09 07:27:57,847.16486,852.0998,822.4902,819.2002
2015-11-09 07:27:57,838.94,853.7448,822.4902,814.26526
2015-11-09 07:27:57,847.16486,857.0347,820.8452,815.9103
2015-11-09 07:27:57,855.3898,858.67975,817.55524,817.55524
2015-11-09 07:27:57,848.8099,850.45483,819.2002,827.4251
2015-11-09 07:27:57,840.58496,848.8099,820.8452,829.07007
2015-11-09 07:27:57,840.58496,860.3247,822.4902,827.4251
2015-11-09 07:27:57,837.295,857.0347,822.4902,835.65
2015-11-09 07:27:57,834.005,857.0347,817.55524,835.65
2015-11-09 07:27:57,843.87494,855.3898,820.8452,832.36005
2015-11-09 07:27:57,838.94,852.0998,819.2002,825.78015
2015-11-09 07:27:57,842.2299,855.3898,819.2002,817.55524
2015-11-09 07:27:57,842.2299,857.0347,817.55524,824.13513
2015-11-09 07:27:57,834.005,857.0347,815.9103,817.55524
2015-11-09 07:27:57,842.2299,858.67975,817.55524,809.3303
2015-11-09 07:27:57,840.58496,858.67975,820.8452,810.9753
2015-11-09 07:27:57,838.94,855.3898,819.2002,806.04034
2015-11-09 07:27:57,835.65,857.0347,817.55524,807.68536
2015-11-09 07:27:57,834.005,857.0347,817.55524,810.9753
2015-11-09 07:27:57,840.58496,857.0347,819.2002,814.26526
2015-11-09 07:27:57,842.2299,858.67975,820.8452,820.8452
2015-11-09 07:27:57,850.45483,860.3247,819.2002,815.9103
2015-11-09 07:27:57,848.8099,858.67975,822.4902,812.6203
2015-11-09 07:27:57,842.2299,858.67975,824.13513,814.26526
2015-11-09 07:27:57,838.94,853.7448,824.13513,817.55524
2015-11-09 07:27:57,837.295,850.45483,817.55524,812.6203
2015-11-09 07:27:57,832.36005,848.8099,817.55524,822.4902
2015-11-09 07:27:57,829.07007,850.45483,820.8452,822.4902
2015-11-09 07:27:57,834.005,850.45483,822.4902,825.78015
2015-11-09 07:27:57,832.36005,852.0998,824.13513,825.78015
2015-11-09 07:27:57,842.2299,848.8099,819.2002,825.78015
2015-11-09 07:27:57,838.94,852.0998,819.2002,820.8452
2015-11-09 07:27:57,832.36005,853.7448,820.8452,824.13513
2015-11-09 07:27:57,834.005,853.7448,822.4902,830.7151
2015-11-09 07:27:57,834.005,855.3898,822.4902,819.2002
2015-11-09 07:27:57,834.005,855.3898,817.55524,820.8452
2015-11-09 07:27:57,825.78015,855.3898,817.55524,819.2002
2015-11-09 07:27:57,830.7151,850.45483,817.55524,819.2002
2015-11-09 07:27:57,840.58496,850.45483,815.9103,820.8452
2015-11-09 07:27:57,842.2299,860.3247,817.55524,817.55524
2015-11-09 07:27:57,848.8099,865.25964,815.9103,819.2002
2015-11-09 07:27:57,843.87494,866.90466,817.55524,815.9103
2015-11-09 07:27:57,838.94,863.6147,817.55524,819.2002
2015-11-09 07:27:57,847.16486,863.6147,822.4902,814.26526
2015-11-09 07:27:57,852.0998,868.5496,822.4902,814.26526
2015-11-09 07:27:57,847.16486,866.90466,822.4902,812.6203
2015-11-09 07:27:57,840.58496,863.6147,824.13513,815.9103
2015-11-09 07:27:57,842.2299,863.6147,827.4251,815.9103
2015-11-09 07:27:57,845.5199,865.25964,824.13513,817.55524
2015-11-09 07:27:57,848.8099,861.9697,825.78015,820.8452
2015-11-09 07:27:57,852.0998,863.6147,825.78015,820.8452
2015-11-09 07:27:57,850.45483,865.25964,825.78015,822.4902
2015-11-09 07:27:57,843.87494,863.6147,829.07007,819.2002
2015-11-09 07:27:57,847.16486,858.67975,825.78015,817.55524
2015-11-09 07:27:57,848.8099,858.67975,827.4251,817.55524
2015-11-09 07:27:57,850.45483,858.67975,827.4251,815.9103
2015-11-09 07:27:57,837.295,860.3247,830.7151,819.2002
2015-11-09 07:27:57,837.295,861.9697,830.7151,820.8452
2015-11-09 07:27:57,840.58496,860.3247,827.4251,817.55524
2015-11-09 07:27:57,834.005,858.67975,825.78015,812.6203
2015-11-09 07:27:57,835.65,863.6147,824.13513,812.6203
2015-11-09 07:27:57,824.13513,860.3247,827.4251,814.26526
2015-11-09 07:27:57,822.4902,855.3898,830.7151,810.9753
2015-11-09 07:27:57,830.7151,860.3247,832.36005,814.26526
2015-11-09 07:27:57,834.005,857.0347,832.36005,812.6203
2015-11-09 07:27:57,830.7151,863.6147,832.36005,810.9753
2015-11-09 07:27:57,834.005,863.6147,829.07007,814.26526
2015-11-09 07:27:57,843.87494,858.67975,830.7151,812.6203
2015-11-09 07:27:57,843.87494,858.67975,829.07007,817.55524
2015-11-09 07:27:57,832.36005,858.67975,822.4902,814.26526
2015-11-09 07:27:57,829.07007,855.3898,819.2002,814.26526
2015-11-09 07:27:57,827.4251,858.67975,822.4902,812.6203
2015-11-09 07:27:57,832.36005,852.0998,824.13513,815.9103
2015-11-09 07:27:57,837.295,855.3898,827.4251,820.8452
2015-11-09 07:27:57,834.005,863.6147,824.13513,817.55524
2015-11-09 07:27:57,832.36005,860.3247,824.13513,814.26526
2015-11-09 07:27:57,840.58496,861.9697,829.07007,815.9103
2015-11-09 07:27:57,845.5199,860.3247,830.7151,815.9103
2015-11-09 07:27:57,838.94,857.0347,830.7151,815.9103
2015-11-09 07:27:57,838.94,861.9697,832.36005,814.26526
2015-11-09 07:27:57,843.87494,860.3247,829.07007,819.2002
2015-11-09 07:27:57,834.005,855.3898,824.13513,822.4902
2015-11-09 07:27:57,835.65,845.5199,825.78015,815.9103
2015-11-09 07:27:57,843.87494,861.9697,827.4251,817.55524
2015-11-09 07:27:57,834.005,860.3247,827.4251,810.9753
2015-11-09 07:27:57,838.94,857.0347,832.36005,815.9103
2015-11-09 07:27:57,838.94,863.6147,829.07007,812.6203
2015-11-09 07:27:57,829.07007,853.7448,830.7151,812.6203
2015-11-09 07:27:57,832.36005,857.0347,830.7151,810.9753
2015-11-09 07:27:57,840.58496,861.9697,834.005,807.68536
2015-11-09 07:27:57,834.005,858.67975,832.36005,810.9753
2015-11-09 07:27:57,838.94,853.7448,827.4251,819.2002
2015-11-09 07:27:57,842.2299,847.16486,829.07007,812.6203
2015-11-09 07:27:57,838.94,855.3898,827.4251,815.9103
2015-11-09 07:27:57,840.58496,857.0347,824.13513,812.6203
2015-11-09 07:27:57,838.94,855.3898,825.78015,812.6203
2015-11-09 07:27:57,835.65,858.67975,822.4902,819.2002
2015-11-09 07:27:57,838.94,852.0998,819.2002,819.2002
2015-11-09 07:27:57,845.5199,857.0347,819.2002,820.8452
2015-11-09 07:27:57,850.45483,861.9697,817.55524,820.8452
2015-11-09 07:27:57,852.0998,861.9697,820.8452,819.2002
2015-11-09 07:27:57,853.7448,860.3247,820.8452,829.07007
2015-11-09 07:27:57,857.0347,850.45483,822.4902,822.4902
2015-11-09 07:27:57,855.3898,853.7448,824.13513,819.2002
2015-11-09 07:27:57,855.3898,860.3247,820.8452,820.8452
2015-11-09 07:27:57,853.7448,858.67975,820.8452,817.55524
2015-11-09 07:27:57,845.5199,861.9697,820.8452,824.13513
2015-11-09 07:27:57,850.45483,857.0347,817.55524,829.07007
2015-11-09 07:27:58,850.45483,855.3898,819.2002,827.4251
2015-11-09 07:27:58,845.5199,855.3898,825.78015,824.13513
2015-11-09 07:27:58,835.65,855.3898,827.4251,817.55524
2015-11-09 07:27:58,837.295,855.3898,825.78015,812.6203
2015-11-09 07:27:58,838.94,852.0998,822.4902,812.6203
2015-11-09 07:27:58,847.16486,865.25964,820.8452,812.6203
2015-11-09 07:27:58,845.5199,861.9697,819.2002,825.78015
2015-11-09 07:27:58,835.65,857.0347,820.8452,824.13513
2015-11-09 07:27:58,835.65,858.67975,820.8452,819.2002
2015-11-09 07:27:58,840.58496,861.9697,820.8452,817.55524
2015-11-09 07:27:58,845.5199,861.9697,822.4902,820.8452
2015-11-09 07:27:58,840.58496,858.67975,822.4902,822.4902
2015-11-09 07:27:58,835.65,857.0347,824.13513,817.55524
2015-11-09 07:27:58,835.65,855.3898,822.4902,822.4902
2015-11-09 07:27:58,845.5199,855.3898,822.4902,825.78015
2015-11-09 07:27:58,852.0998,857.0347,824.13513,830.7151
2015-11-09 07:27:58,857.0347,855.3898,822.4902,834.005
2015-11-09 07:27:58,852.0998,855.3898,824.13513,835.65
2015-11-09 07:27:58,852.0998,860.3247,820.8452,835.65
2015-11-09 07:27:58,848.8099,858.67975,820.8452,837.295
2015-11-09 07:27:58,855.3898,853.7448,820.8452,832.36005
2015-11-09 07:27:58,857.0347,855.3898,819.2002,824.13513
2015-11-09 07:27:58,847.16486,860.3247,819.2002,817.55524
2015-11-09 07:27:58,843.87494,857.0347,820.8452,832.36005
2015-11-09 07:27:58,845.5199,861.9697,819.2002,827.4251
2015-11-09 07:27:58,853.7448,858.67975,819.2002,825.78015
2015-11-09 07:27:58,852.0998,855.3898,819.2002,824.13513
2015-11-09 07:27:58,840.58496,857.0347,817.55524,820.8452
2015-11-09 07:27:58,838.94,860.3247,817.55524,824.13513
2015-11-09 07:27:58,853.7448,861.9697,810.9753,824.13513
2015-11-09 07:27:58,863.6147,852.0998,810.9753,825.78015
2015-11-09 07:27:58,861.9697,848.8099,810.9753,820.8452
2015-11-09 07:27:58,852.0998,855.3898,810.9753,817.55524
2015-11-09 07:27:58,850.45483,853.7448,810.9753,825.78015
2015-11-09 07:27:58,847.16486,863.6147,807.68536,815.9103
2015-11-09 07:27:58,852.0998,857.0347,806.04034,815.9103
2015-11-09 07:27:58,834.005,852.0998,806.04034,810.9753
2015-11-09 07:27:58,843.87494,845.5199,807.68536,824.13513
2015-11-09 07:27:58,834.005,852.0998,806.04034,817.55524
2015-11-09 07:27:58,834.005,852.0998,804.3954,820.8452
2015-11-09 07:27:58,837.295,850.45483,804.3954,814.26526
2015-11-09 07:27:58,835.65,858.67975,802.7504,807.68536
2015-11-09 07:27:58,858.67975,853.7448,804.3954,820.8452
2015-11-09 07:27:58,850.45483,858.67975,806.04034,822.4902
2015-11-09 07:27:58,852.0998,855.3898,807.68536,827.4251
2015-11-09 07:27:58,840.58496,852.0998,807.68536,824.13513
2015-11-09 07:27:58,848.8099,858.67975,806.04034,824.13513
2015-11-09 07:27:58,847.16486,852.0998,807.68536,824.13513
2015-11-09 07:27:58,845.5199,863.6147,809.3303,829.07007
2015-11-09 07:27:58,855.3898,858.67975,806.04034,832.36005
2015-11-09 07:27:58,847.16486,850.45483,809.3303,830.7151
2015-11-09 07:27:58,857.0347,853.7448,810.9753,827.4251
2015-11-09 07:27:58,855.3898,857.0347,804.3954,819.2002
2015-11-09 07:27:58,853.7448,858.67975,807.68536,817.55524
2015-11-09 07:27:58,853.7448,858.67975,812.6203,820.8452
2015-11-09 07:27:58,850.45483,858.67975,812.6203,825.78015
2015-11-09 07:27:58,843.87494,848.8099,814.26526,819.2002
2015-11-09 07:27:58,847.16486,850.45483,812.6203,827.4251
2015-11-09 07:27:58,843.87494,855.3898,810.9753,825.78015
2015-11-09 07:27:58,840.58496,863.6147,809.3303,820.8452
2015-11-09 07:27:58,845.5199,860.3247,812.6203,829.07007
2015-11-09 07:27:58,840.58496,860.3247,812.6203,822.4902
2015-11-09 07:27:58,850.45483,860.3247,815.9103,820.8452
2015-11-09 07:27:58,860.3247,852.0998,817.55524,822.4902
2015-11-09 07:27:58,847.16486,855.3898,819.2002,827.4251
2015-11-09 07:27:58,845.5199,857.0347,814.26526,834.005
2015-11-09 07:27:58,843.87494,860.3247,812.6203,827.4251
2015-11-09 07:27:58,855.3898,860.3247,815.9103,832.36005
2015-11-09 07:27:58,860.3247,860.3247,812.6203,824.13513
2015-11-09 07:27:58,855.3898,855.3898,817.55524,829.07007
2015-11-09 07:27:58,838.94,860.3247,822.4902,817.55524
2015-11-09 07:27:58,837.295,861.9697,824.13513,814.26526
2015-11-09 07:27:58,838.94,857.0347,825.78015,812.6203
2015-11-09 07:27:58,843.87494,853.7448,824.13513,820.8452
2015-11-09 07:27:58,838.94,848.8099,822.4902,829.07007
2015-11-09 07:27:58,838.94,852.0998,824.13513,825.78015
2015-11-09 07:27:58,843.87494,858.67975,820.8452,822.4902
2015-11-09 07:27:58,837.295,860.3247,824.13513,807.68536
2015-11-09 07:27:58,843.87494,863.6147,822.4902,814.26526
2015-11-09 07:27:58,842.2299,855.3898,822.4902,814.26526
2015-11-09 07:27:58,842.2299,853.7448,827.4251,820.8452
2015-11-09 07:27:58,843.87494,855.3898,825.78015,825.78015
2015-11-09 07:27:58,842.2299,861.9697,824.13513,819.2002
2015-11-09 07:27:58,847.16486,855.3898,824.13513,824.13513
2015-11-09 07:27:58,850.45483,847.16486,824.13513,822.4902
2015-11-09 07:27:58,845.5199,850.45483,824.13513,827.4251
2015-11-09 07:27:58,840.58496,866.90466,824.13513,815.9103
2015-11-09 07:27:58,838.94,865.25964,827.4251,814.26526
2015-11-09 07:27:58,845.5199,866.90466,824.13513,814.26526
2015-11-09 07:27:58,850.45483,858.67975,827.4251,820.8452
2015-11-09 07:27:58,843.87494,852.0998,829.07007,830.7151
2015-11-09 07:27:58,838.94,860.3247,825.78015,824.13513
2015-11-09 07:27:58,838.94,853.7448,829.07007,835.65
2015-11-09 07:27:58,830.7151,857.0347,830.7151,825.78015
2015-11-09 07:27:58,842.2299,857.0347,829.07007,825.78015
2015-11-09 07:27:58,835.65,860.3247,827.4251,817.55524
2015-11-09 07:27:58,838.94,863.6147,830.7151,815.9103
2015-11-09 07:27:58,840.58496,858.67975,830.7151,817.55524
2015-11-09 07:27:58,838.94,857.0347,829.07007,824.13513
2015-11-09 07:27:58,845.5199,852.0998,830.7151,829.07007
2015-11-09 07:27:58,843.87494,855.3898,829.07007,832.36005
2015-11-09 07:27:58,845.5199,850.45483,830.7151,832.36005
2015-11-09 07:27:58,842.2299,848.8099,838.94,822.4902
2015-11-09 07:27:58,842.2299,855.3898,838.94,829.07007
2015-11-09 07:27:58,847.16486,847.16486,837.295,829.07007
2015-11-09 07:27:58,842.2299,850.45483,840.58496,825.78015
2015-11-09 07:27:58,857.0347,852.0998,838.94,825.78015
2015-11-09 07:27:58,855.3898,847.16486,838.94,822.4902
2015-11-09 07:27:58,852.0998,855.3898,834.005,822.4902
2015-11-09 07:27:58,845.5199,853.7448,834.005,825.78015
2015-11-09 07:27:58,845.5199,853.7448,842.2299,812.6203
2015-11-09 07:27:58,848.8099,858.67975,843.87494,810.9753
2015-11-09 07:27:58,847.16486,858.67975,842.2299,807.68536
2015-11-09 07:27:58,838.94,852.0998,842.2299,820.8452
2015-11-09 07:27:58,827.4251,855.3898,838.94,820.8452
2015-11-09 07:27:58,835.65,842.2299,840.58496,822.4902
2015-11-09 07:27:58,825.78015,852.0998,840.58496,814.26526
2015-11-09 07:27:58,842.2299,860.3247,840.58496,812.6203
2015-11-09 07:27:58,843.87494,858.67975,842.2299,820.8452
2015-11-09 07:27:58,843.87494,855.3898,838.94,820.8452
2015-11-09 07:27:58,847.16486,852.0998,838.94,819.2002
2015-11-09 07:27:58,843.87494,853.7448,837.295,815.9103
2015-11-09 07:27:58,842.2299,855.3898,838.94,820.8452
2015-11-09 07:27:58,837.295,858.67975,842.2299,822.4902
2015-11-09 07:27:58,830.7151,850.45483,845.5199,830.7151
2015-11-09 07:27:58,824.13513,847.16486,842.2299,822.4902
2015-11-09 07:27:58,825.78015,843.87494,843.87494,824.13513
2015-11-09 07:27:58,829.07007,852.0998,845.5199,820.8452
2015-11-09 07:27:58,842.2299,850.45483,840.58496,825.78015
2015-11-09 07:27:58,830.7151,855.3898,837.295,810.9753
2015-11-09 07:27:58,840.58496,855.3898,837.295,810.9753
2015-11-09 07:27:58,835.65,852.0998,835.65,820.8452
2015-11-09 07:27:58,832.36005,853.7448,832.36005,827.4251
2015-11-09 07:27:58,837.295,850.45483,827.4251,819.2002
2015-11-09 07:27:58,834.005,857.0347,827.4251,814.26526
2015-11-09 07:27:58,838.94,853.7448,830.7151,815.9103
2015-11-09 07:27:58,834.005,853.7448,830.7151,814.26526
2015-11-09 07:27:58,840.58496,845.5199,834.005,824.13513
2015-11-09 07:27:58,832.36005,855.3898,829.07007,810.9753
2015-11-09 07:27:58,830.7151,858.67975,830.7151,809.3303
2015-11-09 07:27:58,835.65,857.0347,835.65,815.9103
2015-11-09 07:27:58,842.2299,855.3898,834.005,814.26526
2015-11-09 07:27:58,838.94,852.0998,832.36005,815.9103
2015-11-09 07:27:58,835.65,861.9697,830.7151,810.9753
2015-11-09 07:27:58,838.94,858.67975,830.7151,815.9103
2015-11-09 07:27:58,842.2299,860.3247,827.4251,822.4902
2015-11-09 07:27:58,842.2299,855.3898,824.13513,817.55524
2015-11-09 07:27:58,842.2299,855.3898,827.4251,819.2002
2015-11-09 07:27:58,837.295,860.3247,830.7151,819.2002
2015-11-09 07:27:58,837.295,855.3898,835.65,815.9103
2015-11-09 07:27:58,843.87494,853.7448,838.94,820.8452
2015-11-09 07:27:58,835.65,850.45483,837.295,812.6203
2015-11-09 07:27:58,835.65,855.3898,837.295,815.9103
2015-11-09 07:27:58,834.005,852.0998,843.87494,827.4251
2015-11-09 07:27:58,829.07007,853.7448,842.2299,825.78015
2015-11-09 07:27:58,837.295,853.7448,843.87494,829.07007
2015-11-09 07:27:58,837.295,853.7448,840.58496,820.8452
2015-11-09 07:27:58,848.8099,855.3898,835.65,815.9103
2015-11-09 07:27:58,850.45483,853.7448,837.295,817.55524
2015-11-09 07:27:58,838.94,855.3898,845.5199,820.8452
2015-11-09 07:27:58,838.94,850.45483,840.58496,814.26526
2015-11-09 07:27:58,840.58496,860.3247,837.295,815.9103
2015-11-09 07:27:58,840.58496,861.9697,837.295,819.2002
2015-11-09 07:27:58,834.005,860.3247,834.005,809.3303
2015-11-09 07:27:58,832.36005,857.0347,840.58496,812.6203
2015-11-09 07:27:58,834.005,858.67975,845.5199,812.6203
2015-11-09 07:27:58,830.7151,863.6147,840.58496,810.9753
2015-11-09 07:27:58,838.94,860.3247,840.58496,812.6203
2015-11-09 07:27:58,840.58496,861.9697,842.2299,809.3303
2015-11-09 07:27:58,843.87494,855.3898,840.58496,809.3303
2015-11-09 07:27:58,845.5199,861.9697,838.94,814.26526
2015-11-09 07:27:58,840.58496,861.9697,834.005,814.26526
2015-11-09 07:27:58,824.13513,857.0347,842.2299,819.2002
2015-11-09 07:27:58,837.295,853.7448,847.16486,822.4902
2015-11-09 07:27:58,832.36005,853.7448,850.45483,830.7151
2015-11-09 07:27:58,832.36005,860.3247,853.7448,829.07007
2015-11-09 07:27:58,840.58496,853.7448,850.45483,822.4902
2015-11-09 07:27:58,832.36005,848.8099,850.45483,829.07007
2015-11-09 07:27:58,847.16486,850.45483,848.8099,827.4251
2015-11-09 07:27:58,845.5199,853.7448,848.8099,829.07007
2015-11-09 07:27:58,852.0998,858.67975,843.87494,822.4902
2015-11-09 07:27:58,848.8099,855.3898,840.58496,815.9103
2015-11-09 07:27:58,840.58496,863.6147,838.94,814.26526
2015-11-09 07:27:58,838.94,863.6147,837.295,814.26526
2015-11-09 07:27:58,827.4251,865.25964,838.94,817.55524
2015-11-09 07:27:58,837.295,863.6147,842.2299,820.8452
2015-11-09 07:27:58,848.8099,866.90466,842.2299,829.07007
2015-11-09 07:27:58,852.0998,865.25964,842.2299,827.4251
2015-11-09 07:27:59,855.3898,863.6147,847.16486,819.2002
2015-11-09 07:27:59,850.45483,861.9697,850.45483,822.4902
2015-11-09 07:27:59,855.3898,857.0347,853.7448,820.8452
2015-11-09 07:27:59,865.25964,857.0347,852.0998,817.55524
2015-11-09 07:27:59,865.25964,857.0347,852.0998,819.2002
2015-11-09 07:27:59,857.0347,860.3247,855.3898,815.9103
2015-11-09 07:27:59,845.5199,858.67975,857.0347,809.3303
2015-11-09 07:27:59,835.65,861.9697,857.0347,820.8452
2015-11-09 07:27:59,827.4251,857.0347,861.9697,824.13513
2015-11-09 07:27:59,822.4902,855.3898,861.9697,819.2002
2015-11-09 07:27:59,830.7151,857.0347,861.9697,820.8452
2015-11-09 07:27:59,840.58496,860.3247,861.9697,824.13513
2015-11-09 07:27:59,838.94,852.0998,858.67975,825.78015
2015-11-09 07:27:59,838.94,857.0347,857.0347,832.36005
2015-11-09 07:27:59,852.0998,863.6147,853.7448,832.36005
2015-11-09 07:27:59,860.3247,857.0347,852.0998,838.94
2015-11-09 07:27:59,868.5496,860.3247,852.0998,834.005
2015-11-09 07:27:59,870.1946,857.0347,852.0998,830.7151
2015-11-09 07:27:59,857.0347,853.7448,853.7448,819.2002
2015-11-09 07:27:59,858.67975,863.6147,855.3898,817.55524
2015-11-09 07:27:59,858.67975,850.45483,852.0998,827.4251
2015-11-09 07:27:59,850.45483,842.2299,855.3898,827.4251
2015-11-09 07:27:59,850.45483,848.8099,855.3898,829.07007
2015-11-09 07:27:59,845.5199,858.67975,857.0347,819.2002
2015-11-09 07:27:59,842.2299,866.90466,857.0347,822.4902
2015-11-09 07:27:59,843.87494,866.90466,852.0998,820.8452
2015-11-09 07:27:59,837.295,861.9697,852.0998,819.2002
2015-11-09 07:27:59,845.5199,857.0347,850.45483,822.4902
2015-11-09 07:27:59,847.16486,857.0347,850.45483,827.4251
2015-11-09 07:27:59,838.94,858.67975,848.8099,824.13513
2015-11-09 07:27:59,847.16486,857.0347,845.5199,819.2002
2015-11-09 07:27:59,843.87494,852.0998,845.5199,809.3303
2015-11-09 07:27:59,838.94,852.0998,843.87494,801.1054
2015-11-09 07:27:59,843.87494,857.0347,842.2299,797.8155
2015-11-09 07:27:59,845.5199,855.3898,837.295,799.46045
2015-11-09 07:27:59,848.8099,866.90466,837.295,802.7504
2015-11-09 07:27:59,853.7448,865.25964,835.65,815.9103
2015-11-09 07:27:59,858.67975,866.90466,837.295,820.8452
2015-11-09 07:27:59,860.3247,860.3247,838.94,825.78015
2015-11-09 07:27:59,858.67975,855.3898,842.2299,829.07007
2015-11-09 07:27:59,850.45483,858.67975,843.87494,827.4251
2015-11-09 07:27:59,848.8099,852.0998,840.58496,834.005
2015-11-09 07:27:59,852.0998,853.7448,842.2299,837.295
2015-11-09 07:27:59,852.0998,847.16486,840.58496,830.7151
2015-11-09 07:27:59,850.45483,845.5199,837.295,834.005
2015-11-09 07:27:59,837.295,850.45483,837.295,822.4902
2015-11-09 07:27:59,830.7151,858.67975,835.65,817.55524
2015-11-09 07:27:59,835.65,857.0347,834.005,819.2002
2015-11-09 07:27:59,834.005,858.67975,834.005,815.9103
2015-11-09 07:27:59,832.36005,858.67975,830.7151,810.9753
2015-11-09 07:27:59,840.58496,858.67975,827.4251,815.9103
2015-11-09 07:27:59,837.295,858.67975,825.78015,814.26526
2015-11-09 07:27:59,834.005,857.0347,824.13513,819.2002
2015-11-09 07:27:59,834.005,852.0998,827.4251,824.13513
2015-11-09 07:27:59,835.65,853.7448,824.13513,817.55524
2015-11-09 07:27:59,850.45483,855.3898,820.8452,817.55524
2015-11-09 07:27:59,860.3247,857.0347,822.4902,814.26526
2015-11-09 07:27:59,850.45483,861.9697,822.4902,817.55524
2015-11-09 07:27:59,842.2299,863.6147,825.78015,827.4251
2015-11-09 07:27:59,848.8099,861.9697,827.4251,827.4251
2015-11-09 07:27:59,845.5199,860.3247,822.4902,825.78015
2015-11-09 07:27:59,845.5199,855.3898,827.4251,809.3303
2015-11-09 07:27:59,838.94,858.67975,829.07007,809.3303
2015-11-09 07:27:59,827.4251,861.9697,832.36005,812.6203
2015-11-09 07:27:59,825.78015,858.67975,834.005,812.6203
2015-11-09 07:27:59,837.295,860.3247,832.36005,819.2002
2015-11-09 07:27:59,848.8099,855.3898,829.07007,810.9753
2015-11-09 07:27:59,848.8099,858.67975,832.36005,809.3303
2015-11-09 07:27:59,860.3247,861.9697,834.005,814.26526
2015-11-09 07:27:59,865.25964,860.3247,834.005,819.2002
2015-11-09 07:27:59,850.45483,857.0347,835.65,819.2002
2015-11-09 07:27:59,829.07007,853.7448,832.36005,827.4251
2015-11-09 07:27:59,837.295,860.3247,830.7151,827.4251
2015-11-09 07:27:59,834.005,858.67975,832.36005,819.2002
2015-11-09 07:27:59,845.5199,858.67975,832.36005,825.78015
2015-11-09 07:27:59,853.7448,858.67975,835.65,824.13513
2015-11-09 07:27:59,840.58496,855.3898,832.36005,822.4902
2015-11-09 07:27:59,835.65,860.3247,834.005,824.13513
2015-11-09 07:27:59,838.94,865.25964,829.07007,815.9103
2015-11-09 07:27:59,843.87494,863.6147,829.07007,817.55524
2015-11-09 07:27:59,853.7448,857.0347,830.7151,820.8452
2015-11-09 07:27:59,853.7448,848.8099,834.005,827.4251
2015-11-09 07:27:59,853.7448,858.67975,837.295,824.13513
2015-11-09 07:27:59,848.8099,865.25964,838.94,824.13513
2015-11-09 07:27:59,847.16486,866.90466,838.94,819.2002
2015-11-09 07:27:59,860.3247,857.0347,837.295,827.4251
2015-11-09 07:27:59,857.0347,861.9697,834.005,819.2002
2015-11-09 07:27:59,855.3898,852.0998,834.005,825.78015
2015-11-09 07:27:59,848.8099,857.0347,834.005,820.8452
2015-11-09 07:27:59,855.3898,857.0347,835.65,829.07007
2015-11-09 07:27:59,852.0998,843.87494,835.65,830.7151
2015-11-09 07:27:59,847.16486,861.9697,830.7151,824.13513
2015-11-09 07:27:59,845.5199,863.6147,834.005,820.8452
2015-11-09 07:27:59,855.3898,860.3247,838.94,820.8452
2015-11-09 07:27:59,860.3247,863.6147,837.295,824.13513
2015-11-09 07:27:59,875.1295,855.3898,837.295,834.005
2015-11-09 07:27:59,865.25964,861.9697,835.65,829.07007
2015-11-09 07:27:59,855.3898,861.9697,830.7151,824.13513
2015-11-09 07:27:59,853.7448,861.9697,827.4251,822.4902
2015-11-09 07:27:59,848.8099,855.3898,832.36005,827.4251
2015-11-09 07:27:59,842.2299,848.8099,832.36005,824.13513
2015-11-09 07:27:59,847.16486,843.87494,830.7151,830.7151
2015-11-09 07:27:59,845.5199,871.8396,834.005,820.8452
2015-11-09 07:27:59,858.67975,861.9697,834.005,827.4251
2015-11-09 07:27:59,857.0347,866.90466,834.005,825.78015
2015-11-09 07:27:59,852.0998,863.6147,838.94,829.07007
2015-11-09 07:27:59,842.2299,853.7448,835.65,825.78015
2015-11-09 07:27:59,845.5199,870.1946,830.7151,815.9103
2015-11-09 07:27:59,848.8099,860.3247,834.005,819.2002
2015-11-09 07:27:59,845.5199,861.9697,835.65,812.6203
2015-11-09 07:27:59,845.5199,852.0998,835.65,827.4251
2015-11-09 07:27:59,842.2299,860.3247,835.65,820.8452
2015-11-09 07:27:59,845.5199,853.7448,837.295,832.36005
2015-11-09 07:27:59,845.5199,855.3898,834.005,824.13513
2015-11-09 07:27:59,852.0998,865.25964,825.78015,819.2002
2015-11-09 07:27:59,850.45483,865.25964,829.07007,817.55524
2015-11-09 07:27:59,855.3898,858.67975,830.7151,815.9103
2015-11-09 07:27:59,850.45483,845.5199,829.07007,820.8452
2015-11-09 07:27:59,845.5199,850.45483,830.7151,820.8452
2015-11-09 07:27:59,843.87494,855.3898,827.4251,819.2002
2015-11-09 07:27:59,845.5199,865.25964,824.13513,817.55524
2015-11-09 07:27:59,855.3898,863.6147,825.78015,825.78015
2015-11-09 07:27:59,852.0998,853.7448,829.07007,830.7151
2015-11-09 07:27:59,847.16486,860.3247,825.78015,820.8452
2015-11-09 07:27:59,855.3898,855.3898,830.7151,829.07007
2015-11-09 07:27:59,858.67975,855.3898,829.07007,822.4902
2015-11-09 07:27:59,861.9697,855.3898,829.07007,834.005
2015-11-09 07:27:59,848.8099,858.67975,827.4251,829.07007
2015-11-09 07:27:59,847.16486,858.67975,827.4251,827.4251
2015-11-09 07:27:59,842.2299,857.0347,829.07007,827.4251
2015-11-09 07:27:59,842.2299,853.7448,827.4251,825.78015
2015-11-09 07:27:59,837.295,848.8099,829.07007,827.4251
2015-11-09 07:27:59,837.295,863.6147,825.78015,830.7151
2015-11-09 07:27:59,843.87494,857.0347,825.78015,827.4251
2015-11-09 07:27:59,852.0998,855.3898,827.4251,825.78015
2015-11-09 07:27:59,857.0347,855.3898,827.4251,834.005
2015-11-09 07:27:59,845.5199,855.3898,827.4251,817.55524
2015-11-09 07:27:59,847.16486,861.9697,825.78015,829.07007
2015-11-09 07:27:59,852.0998,855.3898,827.4251,827.4251
2015-11-09 07:27:59,858.67975,855.3898,830.7151,827.4251
2015-11-09 07:27:59,852.0998,860.3247,829.07007,827.4251
2015-11-09 07:27:59,847.16486,860.3247,830.7151,820.8452
2015-11-09 07:27:59,861.9697,863.6147,825.78015,820.8452
2015-11-09 07:27:59,860.3247,860.3247,825.78015,817.55524
2015-11-09 07:27:59,855.3898,847.16486,830.7151,830.7151
2015-11-09 07:27:59,845.5199,850.45483,830.7151,822.4902
2015-11-09 07:27:59,837.295,857.0347,835.65,827.4251
2015-11-09 07:27:59,838.94,855.3898,834.005,820.8452
2015-11-09 07:27:59,840.58496,866.90466,830.7151,817.55524
2015-11-09 07:27:59,847.16486,870.1946,829.07007,825.78015
2015-11-09 07:27:59,850.45483,858.67975,834.005,825.78015
2015-11-09 07:27:59,855.3898,871.8396,832.36005,835.65
2015-11-09 07:27:59,855.3898,865.25964,830.7151,827.4251
2015-11-09 07:27:59,850.45483,865.25964,830.7151,830.7151
2015-11-09 07:27:59,848.8099,857.0347,827.4251,834.005
2015-11-09 07:27:59,855.3898,863.6147,830.7151,829.07007
2015-11-09 07:27:59,852.0998,852.0998,832.36005,835.65
2015-11-09 07:27:59,842.2299,860.3247,830.7151,827.4251
2015-11-09 07:27:59,842.2299,866.90466,827.4251,829.07007
2015-11-09 07:27:59,842.2299,861.9697,829.07007,824.13513
2015-11-09 07:27:59,842.2299,865.25964,830.7151,819.2002
2015-11-09 07:27:59,847.16486,861.9697,830.7151,815.9103
2015-11-09 07:27:59,843.87494,858.67975,830.7151,812.6203
2015-11-09 07:27:59,847.16486,860.3247,832.36005,819.2002
2015-11-09 07:27:59,850.45483,861.9697,830.7151,824.13513
2015-11-09 07:27:59,850.45483,860.3247,830.7151,817.55524
2015-11-09 07:27:59,855.3898,861.9697,835.65,825.78015
2015-11-09 07:27:59,852.0998,866.90466,835.65,827.4251
2015-11-09 07:27:59,848.8099,860.3247,838.94,837.295
2015-11-09 07:27:59,842.2299,853.7448,840.58496,843.87494
2015-11-09 07:27:59,845.5199,858.67975,837.295,829.07007
2015-11-09 07:27:59,853.7448,861.9697,837.295,832.36005
2015-11-09 07:27:59,853.7448,863.6147,837.295,827.4251
2015-11-09 07:27:59,860.3247,858.67975,840.58496,829.07007
2015-11-09 07:27:59,858.67975,847.16486,842.2299,835.65
2015-11-09 07:27:59,847.16486,848.8099,838.94,829.07007
2015-11-09 07:27:59,827.4251,857.0347,840.58496,835.65
2015-11-09 07:27:59,827.4251,865.25964,834.005,830.7151
2015-11-09 07:27:59,830.7151,860.3247,832.36005,829.07007
2015-11-09 07:27:59,840.58496,855.3898,832.36005,829.07007
2015-11-09 07:27:59,838.94,858.67975,834.005,832.36005
2015-11-09 07:27:59,832.36005,857.0347,834.005,829.07007
2015-11-09 07:27:59,834.005,857.0347,835.65,822.4902
2015-11-09 07:27:59,840.58496,860.3247,834.005,822.4902
2015-11-09 07:27:59,847.16486,858.67975,838.94,822.4902
2015-11-09 07:27:59,845.5199,860.3247,840.58496,830.7151
2015-11-09 07:27:59,845.5199,860.3247,843.87494,838.94
2015-11-09 07:27:59,842.2299,855.3898,845.5199,837.295
2015-11-09 07:27:59,842.2299,853.7448,848.8099,835.65
2015-11-09 07:27:59,843.87494,855.3898,847.16486,830.7151
2015-11-09 07:27:59,850.45483,855.3898,848.8099,835.65
2015-11-09 07:27:59,850.45483,848.8099,850.45483,834.005
2015-11-09 07:27:59,845.5199,852.0998,842.2299,837.295
2015-11-09 07:27:59,842.2299,848.8099,837.295,829.07007
2015-11-09 07:27:59,845.5199,857.0347,832.36005,820.8452
2015-11-09 07:27:59,843.87494,850.45483,832.36005,822.4902
2015-11-09 07:27:59,838.94,857.0347,834.005,824.13513
2015-11-09 07:27:59,834.005,866.90466,832.36005,820.8452
2015-11-09 07:27:59,834.005,857.0347,827.4251,819.2002
2015-11-09 07:27:59,835.65,858.67975,827.4251,827.4251
2015-11-09 07:27:59,829.07007,848.8099,829.07007,824.13513
2015-11-09 07:27:59,827.4251,848.8099,827.4251,822.4902
2015-11-09 07:27:59,822.4902,850.45483,829.07007,822.4902
2015-11-09 07:27:59,827.4251,848.8099,827.4251,820.8452
2015-11-09 07:27:59,832.36005,850.45483,827.4251,824.13513
2015-11-09 07:27:59,827.4251,852.0998,825.78015,834.005
2015-11-09 07:27:59,840.58496,855.3898,820.8452,829.07007
2015-11-09 07:27:59,834.005,853.7448,814.26526,824.13513
2015-11-09 07:27:59,837.295,857.0347,817.55524,820.8452
2015-11-09 07:27:59,842.2299,848.8099,822.4902,820.8452
2015-11-09 07:27:59,835.65,855.3898,822.4902,815.9103
2015-11-09 07:27:59,843.87494,855.3898,827.4251,829.07007
2015-11-09 07:27:59,830.7151,861.9697,825.78015,824.13513
2015-11-09 07:27:59,835.65,858.67975,827.4251,829.07007
2015-11-09 07:27:59,847.16486,850.45483,830.7151,830.7151
2015-11-09 07:27:59,840.58496,842.2299,830.7151,832.36005
2015-11-09 07:27:59,840.58496,847.16486,827.4251,829.07007
2015-11-09 07:27:59,840.58496,853.7448,827.4251,834.005
2015-11-09 07:27:59,829.07007,863.6147,827.4251,830.7151
2015-11-09 07:27:59,850.45483,861.9697,827.4251,834.005
2015-11-09 07:27:59,842.2299,857.0347,829.07007,830.7151
2015-11-09 07:27:59,847.16486,866.90466,829.07007,822.4902
2015-11-09 07:27:59,848.8099,861.9697,832.36005,832.36005
2015-11-09 07:27:59,850.45483,863.6147,830.7151,834.005
2015-11-09 07:27:59,850.45483,858.67975,824.13513,829.07007
2015-11-09 07:27:59,840.58496,861.9697,820.8452,819.2002
2015-11-09 07:27:59,845.5199,857.0347,822.4902,827.4251
2015-11-09 07:27:59,843.87494,861.9697,820.8452,822.4902
2015-11-09 07:27:59,838.94,860.3247,819.2002,829.07007
2015-11-09 07:27:59,842.2299,863.6147,812.6203,822.4902
2015-11-09 07:27:59,848.8099,863.6147,810.9753,822.4902
2015-11-09 07:27:59,840.58496,861.9697,810.9753,812.6203
2015-11-09 07:27:59,837.295,860.3247,814.26526,824.13513
2015-11-09 07:27:59,827.4251,857.0347,812.6203,827.4251
2015-11-09 07:27:59,830.7151,860.3247,809.3303,817.55524
2015-11-09 07:27:59,855.3898,857.0347,810.9753,830.7151
2015-11-09 07:27:59,865.25964,865.25964,809.3303,822.4902
2015-11-09 07:27:59,870.1946,863.6147,809.3303,824.13513
2015-11-09 07:27:59,865.25964,866.90466,807.68536,825.78015
2015-11-09 07:27:59,852.0998,868.5496,809.3303,832.36005
2015-11-09 07:27:59,845.5199,857.0347,812.6203,835.65
2015-11-09 07:27:59,843.87494,850.45483,812.6203,834.005
2015-11-09 07:27:59,837.295,861.9697,812.6203,832.36005
2015-11-09 07:27:59,845.5199,866.90466,815.9103,827.4251
2015-11-09 07:27:59,842.2299,868.5496,815.9103,829.07007
2015-11-09 07:27:59,842.2299,870.1946,817.55524,835.65
2015-11-09 07:27:59,850.45483,857.0347,817.55524,835.65
2015-11-09 07:27:59,840.58496,861.9697,817.55524,829.07007
2015-11-09 07:27:59,842.2299,861.9697,820.8452,829.07007
2015-11-09 07:27:59,835.65,857.0347,817.55524,832.36005
2015-11-09 07:27:59,835.65,855.3898,817.55524,834.005
2015-11-09 07:27:59,837.295,857.0347,815.9103,827.4251
2015-11-09 07:27:59,840.58496,863.6147,815.9103,820.8452
2015-11-09 07:27:59,847.16486,857.0347,819.2002,825.78015
2015-11-09 07:27:59,852.0998,858.67975,819.2002,830.7151
2015-11-09 07:27:59,853.7448,858.67975,817.55524,829.07007
2015-11-09 07:27:59,848.8099,863.6147,820.8452,825.78015
2015-11-09 07:27:59,852.0998,858.67975,819.2002,837.295
2015-11-09 07:27:59,847.16486,855.3898,819.2002,825.78015
2015-11-09 07:27:59,838.94,855.3898,820.8452,840.58496
2015-11-09 07:27:59,845.5199,853.7448,822.4902,834.005
2015-11-09 07:27:59,838.94,863.6147,822.4902,830.7151
2015-11-09 07:27:59,843.87494,868.5496,822.4902,835.65
2015-11-09 07:27:59,843.87494,870.1946,824.13513,834.005
2015-11-09 07:27:59,835.65,860.3247,824.13513,848.8099
2015-11-09 07:27:59,838.94,860.3247,824.13513,840.58496
2015-11-09 07:27:59,850.45483,858.67975,820.8452,838.94
2015-11-09 07:27:59,848.8099,857.0347,820.8452,837.295
2015-11-09 07:27:59,840.58496,860.3247,820.8452,830.7151
2015-11-09 07:27:59,827.4251,855.3898,820.8452,825.78015
2015-11-09 07:28:00,829.07007,861.9697,820.8452,829.07007
2015-11-09 07:28:00,837.295,863.6147,820.8452,829.07007
2015-11-09 07:28:00,843.87494,863.6147,824.13513,829.07007
2015-11-09 07:28:00,848.8099,860.3247,827.4251,838.94
2015-11-09 07:28:00,845.5199,860.3247,824.13513,829.07007
2015-11-09 07:28:00,852.0998,866.90466,824.13513,822.4902
2015-11-09 07:28:00,853.7448,863.6147,820.8452,825.78015
2015-11-09 07:28:00,847.16486,865.25964,820.8452,822.4902
2015-11-09 07:28:00,848.8099,860.3247,824.13513,822.4902
2015-11-09 07:28:00,855.3898,861.9697,820.8452,822.4902
2015-11-09 07:28:00,852.0998,855.3898,824.13513,837.295
2015-11-09 07:28:00,855.3898,858.67975,820.8452,822.4902
2015-11-09 07:28:00,852.0998,855.3898,820.8452,830.7151
2015-11-09 07:28:00,838.94,853.7448,822.4902,830.7151
2015-11-09 07:28:00,852.0998,858.67975,824.13513,834.005
2015-11-09 07:28:00,838.94,855.3898,825.78015,832.36005
2015-11-09 07:28:00,834.005,858.67975,824.13513,825.78015
2015-11-09 07:28:00,842.2299,855.3898,820.8452,824.13513
2015-11-09 07:28:00,837.295,857.0347,822.4902,827.4251
2015-11-09 07:28:00,852.0998,855.3898,824.13513,837.295
2015-11-09 07:28:00,852.0998,850.45483,827.4251,829.07007
2015-11-09 07:28:00,853.7448,858.67975,822.4902,830.7151
2015-11-09 07:28:00,853.7448,868.5496,824.13513,829.07007
2015-11-09 07:28:00,855.3898,865.25964,824.13513,822.4902
2015-11-09 07:28:00,847.16486,868.5496,820.8452,830.7151
2015-11-09 07:28:00,840.58496,865.25964,820.8452,814.26526
2015-11-09 07:28:00,852.0998,861.9697,819.2002,824.13513
2015-11-09 07:28:00,843.87494,861.9697,817.55524,825.78015
2015-11-09 07:28:00,840.58496,850.45483,822.4902,825.78015
2015-11-09 07:28:00,834.005,860.3247,822.4902,822.4902
2015-11-09 07:28:00,843.87494,865.25964,820.8452,824.13513
2015-11-09 07:28:00,853.7448,871.8396,820.8452,819.2002
2015-11-09 07:28:00,860.3247,868.5496,824.13513,820.8452
2015-11-09 07:28:00,847.16486,853.7448,824.13513,824.13513
2015-11-09 07:28:00,843.87494,853.7448,825.78015,822.4902
2015-11-09 07:28:00,840.58496,858.67975,824.13513,829.07007
2015-11-09 07:28:00,837.295,866.90466,824.13513,825.78015
2015-11-09 07:28:00,837.295,866.90466,827.4251,827.4251
2015-11-09 07:28:00,832.36005,861.9697,827.4251,834.005
2015-11-09 07:28:00,838.94,860.3247,824.13513,834.005
2015-11-09 07:28:00,845.5199,860.3247,825.78015,838.94
2015-11-09 07:28:00,843.87494,861.9697,825.78015,837.295
2015-11-09 07:28:00,838.94,865.25964,827.4251,832.36005
2015-11-09 07:28:00,842.2299,861.9697,829.07007,835.65
2015-11-09 07:28:00,840.58496,858.67975,825.78015,827.4251
2015-11-09 07:28:00,848.8099,860.3247,827.4251,829.07007
2015-11-09 07:28:00,840.58496,865.25964,829.07007,825.78015
2015-11-09 07:28:00,840.58496,858.67975,819.2002,820.8452
2015-11-09 07:28:00,838.94,858.67975,815.9103,819.2002
2015-11-09 07:28:00,837.295,855.3898,814.26526,812.6203
2015-11-09 07:28:00,835.65,852.0998,814.26526,814.26526
2015-11-09 07:28:00,838.94,861.9697,819.2002,814.26526
2015-11-09 07:28:00,842.2299,860.3247,817.55524,812.6203
2015-11-09 07:28:00,848.8099,858.67975,817.55524,824.13513
2015-11-09 07:28:00,847.16486,853.7448,820.8452,824.13513
2015-11-09 07:28:00,842.2299,853.7448,822.4902,829.07007
2015-11-09 07:28:00,848.8099,866.90466,820.8452,820.8452
2015-11-09 07:28:00,860.3247,868.5496,820.8452,824.13513
2015-11-09 07:28:00,865.25964,865.25964,822.4902,830.7151
2015-11-09 07:28:00,850.45483,858.67975,822.4902,834.005
2015-11-09 07:28:00,843.87494,861.9697,824.13513,829.07007
2015-11-09 07:28:00,832.36005,865.25964,824.13513,827.4251
2015-11-09 07:28:00,838.94,866.90466,822.4902,832.36005
2015-11-09 07:28:00,860.3247,858.67975,825.78015,838.94
2015-11-09 07:28:00,850.45483,858.67975,822.4902,832.36005
2015-11-09 07:28:00,863.6147,865.25964,819.2002,835.65
2015-11-09 07:28:00,852.0998,865.25964,820.8452,832.36005
2015-11-09 07:28:00,855.3898,868.5496,819.2002,838.94
2015-11-09 07:28:00,848.8099,857.0347,817.55524,838.94
2015-11-09 07:28:00,850.45483,871.8396,815.9103,829.07007
2015-11-09 07:28:00,848.8099,865.25964,814.26526,832.36005
2015-11-09 07:28:00,832.36005,870.1946,814.26526,822.4902
2015-11-09 07:28:00,843.87494,866.90466,812.6203,832.36005
2015-11-09 07:28:00,837.295,858.67975,806.04034,824.13513
2015-11-09 07:28:00,848.8099,850.45483,804.3954,830.7151
2015-11-09 07:28:00,837.295,853.7448,804.3954,817.55524
2015-11-09 07:28:00,834.005,857.0347,804.3954,814.26526
2015-11-09 07:28:00,842.2299,852.0998,804.3954,819.2002
2015-11-09 07:28:00,852.0998,855.3898,804.3954,830.7151
2015-11-09 07:28:00,855.3898,857.0347,804.3954,837.295
2015-11-09 07:28:00,852.0998,860.3247,806.04034,832.36005
2015-11-09 07:28:00,850.45483,858.67975,809.3303,840.58496
2015-11-09 07:28:00,837.295,860.3247,807.68536,835.65
2015-11-09 07:28:00,853.7448,861.9697,809.3303,835.65
2015-11-09 07:28:00,855.3898,857.0347,814.26526,835.65
2015-11-09 07:28:00,850.45483,863.6147,814.26526,830.7151
2015-11-09 07:28:00,865.25964,858.67975,819.2002,848.8099
2015-11-09 07:28:00,845.5199,858.67975,820.8452,848.8099
2015-11-09 07:28:00,847.16486,863.6147,820.8452,848.8099
2015-11-09 07:28:00,860.3247,866.90466,820.8452,843.87494
2015-11-09 07:28:00,863.6147,871.8396,817.55524,837.295
2015-11-09 07:28:00,857.0347,870.1946,817.55524,837.295
2015-11-09 07:28:00,852.0998,868.5496,817.55524,840.58496
2015-11-09 07:28:00,850.45483,865.25964,817.55524,835.65
2015-11-09 07:28:00,850.45483,861.9697,820.8452,843.87494
2015-11-09 07:28:00,860.3247,863.6147,819.2002,845.5199
2015-11-09 07:28:00,853.7448,863.6147,820.8452,845.5199
2015-11-09 07:28:00,852.0998,870.1946,819.2002,837.295
2015-11-09 07:28:00,850.45483,866.90466,817.55524,835.65
2015-11-09 07:28:00,857.0347,868.5496,814.26526,834.005
2015-11-09 07:28:00,860.3247,865.25964,817.55524,832.36005
2015-11-09 07:28:00,858.67975,866.90466,815.9103,825.78015
2015-11-09 07:28:00,866.90466,868.5496,814.26526,834.005
2015-11-09 07:28:00,855.3898,871.8396,810.9753,829.07007
2015-11-09 07:28:00,861.9697,866.90466,812.6203,838.94
2015-11-09 07:28:00,863.6147,863.6147,812.6203,848.8099
2015-11-09 07:28:00,850.45483,871.8396,812.6203,837.295
2015-11-09 07:28:00,850.45483,870.1946,814.26526,835.65
2015-11-09 07:28:00,845.5199,871.8396,814.26526,838.94
2015-11-09 07:28:00,845.5199,866.90466,815.9103,837.295
2015-11-09 07:28:00,852.0998,873.48456,815.9103,838.94
2015-11-09 07:28:00,858.67975,871.8396,815.9103,845.5199
2015-11-09 07:28:00,853.7448,873.48456,817.55524,842.2299
2015-11-09 07:28:00,858.67975,866.90466,819.2002,843.87494
2015-11-09 07:28:00,860.3247,865.25964,819.2002,843.87494
2015-11-09 07:28:00,853.7448,866.90466,819.2002,842.2299
2015-11-09 07:28:00,850.45483,870.1946,815.9103,837.295
2015-11-09 07:28:00,857.0347,866.90466,815.9103,838.94
2015-11-09 07:28:00,857.0347,873.48456,814.26526,835.65
2015-11-09 07:28:00,863.6147,866.90466,817.55524,840.58496
2015-11-09 07:28:00,855.3898,870.1946,814.26526,827.4251
2015-11-09 07:28:00,857.0347,866.90466,814.26526,837.295
2015-11-09 07:28:00,848.8099,870.1946,810.9753,829.07007
2015-11-09 07:28:00,857.0347,873.48456,810.9753,832.36005
2015-11-09 07:28:00,866.90466,868.5496,812.6203,829.07007
2015-11-09 07:28:00,857.0347,873.48456,810.9753,820.8452
2015-11-09 07:28:00,857.0347,861.9697,810.9753,830.7151
2015-11-09 07:28:00,848.8099,870.1946,809.3303,827.4251
2015-11-09 07:28:00,848.8099,865.25964,810.9753,838.94
2015-11-09 07:28:00,855.3898,870.1946,809.3303,824.13513
2015-11-09 07:28:00,863.6147,866.90466,809.3303,827.4251
2015-11-09 07:28:00,857.0347,865.25964,809.3303,822.4902
2015-11-09 07:28:00,861.9697,868.5496,809.3303,827.4251
2015-11-09 07:28:00,865.25964,860.3247,807.68536,830.7151
2015-11-09 07:28:00,853.7448,865.25964,809.3303,825.78015
2015-11-09 07:28:00,848.8099,860.3247,809.3303,835.65
2015-11-09 07:28:00,847.16486,865.25964,810.9753,829.07007
2015-11-09 07:28:00,850.45483,868.5496,810.9753,830.7151
2015-11-09 07:28:00,858.67975,870.1946,812.6203,830.7151
2015-11-09 07:28:00,850.45483,866.90466,810.9753,827.4251
2015-11-09 07:28:00,852.0998,868.5496,810.9753,829.07007
2015-11-09 07:28:00,855.3898,866.90466,810.9753,829.07007
2015-11-09 07:28:00,852.0998,865.25964,812.6203,827.4251
2015-11-09 07:28:00,847.16486,861.9697,810.9753,834.005
2015-11-09 07:28:00,850.45483,863.6147,809.3303,835.65
2015-11-09 07:28:00,850.45483,865.25964,807.68536,837.295
2015-11-09 07:28:00,852.0998,866.90466,806.04034,829.07007
2015-11-09 07:28:00,852.0998,866.90466,806.04034,827.4251
2015-11-09 07:28:00,835.65,863.6147,806.04034,825.78015
2015-11-09 07:28:00,842.2299,865.25964,807.68536,819.2002
2015-11-09 07:28:00,852.0998,865.25964,809.3303,825.78015
2015-11-09 07:28:00,857.0347,868.5496,809.3303,825.78015
2015-11-09 07:28:00,861.9697,868.5496,807.68536,830.7151
2015-11-09 07:28:00,858.67975,866.90466,807.68536,829.07007
2015-11-09 07:28:00,853.7448,866.90466,807.68536,825.78015
2015-11-09 07:28:00,861.9697,863.6147,809.3303,824.13513
2015-11-09 07:28:00,858.67975,865.25964,807.68536,825.78015
2015-11-09 07:28:00,850.45483,868.5496,807.68536,825.78015
2015-11-09 07:28:00,850.45483,866.90466,806.04034,832.36005
2015-11-09 07:28:00,843.87494,868.5496,804.3954,829.07007
2015-11-09 07:28:00,850.45483,866.90466,804.3954,820.8452
2015-11-09 07:28:00,860.3247,866.90466,806.04034,822.4902
2015-11-09 07:28:01,858.67975,868.5496,807.68536,829.07007
2015-11-09 07:28:01,855.3898,870.1946,807.68536,830.7151
2015-11-09 07:28:01,855.3898,865.25964,807.68536,834.005
2015-11-09 07:28:01,850.45483,858.67975,807.68536,830.7151
2015-11-09 07:28:01,848.8099,860.3247,807.68536,825.78015
2015-11-09 07:28:01,842.2299,857.0347,809.3303,829.07007
2015-11-09 07:28:01,834.005,860.3247,807.68536,832.36005
2015-11-09 07:28:01,840.58496,861.9697,807.68536,835.65
2015-11-09 07:28:01,850.45483,861.9697,809.3303,840.58496
2015-11-09 07:28:01,857.0347,866.90466,807.68536,842.2299
2015-11-09 07:28:01,855.3898,863.6147,806.04034,838.94
2015-11-09 07:28:01,852.0998,863.6147,804.3954,837.295
2015-11-09 07:28:01,852.0998,860.3247,802.7504,837.295
2015-11-09 07:28:01,853.7448,861.9697,797.8155,832.36005
2015-11-09 07:28:01,848.8099,860.3247,796.1705,825.78015
2015-11-09 07:28:01,842.2299,863.6147,796.1705,832.36005
2015-11-09 07:28:01,848.8099,863.6147,796.1705,830.7151
2015-11-09 07:28:01,852.0998,865.25964,797.8155,827.4251
2015-11-09 07:28:01,860.3247,865.25964,796.1705,827.4251
2015-11-09 07:28:01,855.3898,861.9697,794.5255,817.55524
2015-11-09 07:28:01,848.8099,858.67975,794.5255,820.8452
2015-11-09 07:28:01,842.2299,857.0347,796.1705,822.4902
2015-11-09 07:28:01,840.58496,860.3247,796.1705,812.6203
2015-11-09 07:28:01,829.07007,858.67975,797.8155,812.6203
2015-11-09 07:28:01,835.65,857.0347,799.46045,817.55524
2015-11-09 07:28:01,834.005,857.0347,799.46045,817.55524
2015-11-09 07:28:01,830.7151,853.7448,797.8155,822.4902
2015-11-09 07:28:01,838.94,857.0347,799.46045,829.07007
2015-11-09 07:28:01,838.94,857.0347,801.1054,829.07007
2015-11-09 07:28:01,848.8099,857.0347,801.1054,834.005
2015-11-09 07:28:01,853.7448,855.3898,802.7504,829.07007
2015-11-09 07:28:01,847.16486,855.3898,802.7504,822.4902
2015-11-09 07:28:01,840.58496,853.7448,806.04034,825.78015
2015-11-09 07:28:01,840.58496,855.3898,804.3954,827.4251
2015-11-09 07:28:01,837.295,855.3898,806.04034,829.07007
2015-11-09 07:28:01,837.295,857.0347,806.04034,834.005
2015-11-09 07:28:01,835.65,858.67975,806.04034,830.7151
2015-11-09 07:28:01,835.65,853.7448,807.68536,830.7151
2015-11-09 07:28:01,850.45483,858.67975,806.04034,824.13513
2015-11-09 07:28:01,852.0998,858.67975,806.04034,817.55524
2015-11-09 07:28:01,848.8099,858.67975,804.3954,817.55524
2015-11-09 07:28:01,848.8099,858.67975,807.68536,817.55524
2015-11-09 07:28:01,840.58496,858.67975,807.68536,815.9103
2015-11-09 07:28:01,838.94,858.67975,807.68536,819.2002
2015-11-09 07:28:01,848.8099,861.9697,810.9753,817.55524
2015-11-09 07:28:01,848.8099,861.9697,812.6203,815.9103
2015-11-09 07:28:01,850.45483,861.9697,810.9753,814.26526
2015-11-09 07:28:01,860.3247,865.25964,809.3303,814.26526
2015-11-09 07:28:01,861.9697,865.25964,810.9753,814.26526
2015-11-09 07:28:01,860.3247,863.6147,810.9753,817.55524
2015-11-09 07:28:01,853.7448,860.3247,815.9103,824.13513
2015-11-09 07:28:01,847.16486,860.3247,814.26526,825.78015
2015-11-09 07:28:01,847.16486,861.9697,812.6203,830.7151
2015-11-09 07:28:01,850.45483,860.3247,814.26526,832.36005
2015-11-09 07:28:01,858.67975,860.3247,814.26526,827.4251
2015-11-09 07:28:01,857.0347,861.9697,809.3303,827.4251
2015-11-09 07:28:01,848.8099,860.3247,810.9753,825.78015
2015-11-09 07:28:01,840.58496,861.9697,810.9753,822.4902
2015-11-09 07:28:01,843.87494,860.3247,814.26526,830.7151
2015-11-09 07:28:01,850.45483,858.67975,815.9103,830.7151
2015-11-09 07:28:01,861.9697,860.3247,814.26526,829.07007
2015-11-09 07:28:01,855.3898,860.3247,814.26526,830.7151
2015-11-09 07:28:01,853.7448,861.9697,814.26526,824.13513
2015-11-09 07:28:01,848.8099,860.3247,812.6203,825.78015
2015-11-09 07:28:01,837.295,858.67975,812.6203,834.005
2015-11-09 07:28:01,850.45483,858.67975,809.3303,827.4251
2015-11-09 07:28:01,845.5199,860.3247,809.3303,829.07007
2015-11-09 07:28:01,842.2299,857.0347,810.9753,827.4251
2015-11-09 07:28:01,848.8099,861.9697,809.3303,822.4902
2015-11-09 07:28:01,848.8099,861.9697,809.3303,827.4251
2015-11-09 07:28:01,838.94,855.3898,807.68536,822.4902
2015-11-09 07:28:01,838.94,853.7448,801.1054,819.2002
2015-11-09 07:28:01,842.2299,852.0998,799.46045,814.26526
2015-11-09 07:28:01,838.94,850.45483,797.8155,815.9103
2015-11-09 07:28:01,843.87494,853.7448,799.46045,814.26526
2015-11-09 07:28:01,838.94,853.7448,801.1054,819.2002
2015-11-09 07:28:01,843.87494,857.0347,801.1054,814.26526
2015-11-09 07:28:01,845.5199,858.67975,802.7504,815.9103
2015-11-09 07:28:01,850.45483,860.3247,804.3954,820.8452
2015-11-09 07:28:01,852.0998,855.3898,801.1054,820.8452
2015-11-09 07:28:01,845.5199,845.5199,796.1705,817.55524
2015-11-09 07:28:01,850.45483,848.8099,794.5255,812.6203
2015-11-09 07:28:01,853.7448,852.0998,794.5255,815.9103
2015-11-09 07:28:01,842.2299,852.0998,799.46045,817.55524
2015-11-09 07:28:01,838.94,857.0347,801.1054,820.8452
2015-11-09 07:28:01,847.16486,858.67975,804.3954,822.4902
2015-11-09 07:28:01,848.8099,860.3247,804.3954,817.55524
2015-11-09 07:28:01,865.25964,860.3247,806.04034,820.8452
2015-11-09 07:28:01,858.67975,861.9697,807.68536,815.9103
2015-11-09 07:28:01,858.67975,858.67975,807.68536,830.7151
2015-11-09 07:28:01,853.7448,855.3898,809.3303,829.07007
2015-11-09 07:28:01,850.45483,860.3247,810.9753,824.13513
2015-11-09 07:28:01,852.0998,860.3247,812.6203,829.07007
2015-11-09 07:28:01,840.58496,858.67975,812.6203,827.4251
2015-11-09 07:28:01,842.2299,858.67975,810.9753,824.13513
2015-11-09 07:28:01,840.58496,861.9697,810.9753,827.4251
2015-11-09 07:28:01,845.5199,861.9697,810.9753,824.13513
2015-11-09 07:28:01,855.3898,865.25964,810.9753,819.2002
2015-11-09 07:28:01,858.67975,861.9697,812.6203,824.13513
2015-11-09 07:28:01,855.3898,857.0347,810.9753,824.13513
2015-11-09 07:28:01,855.3898,858.67975,814.26526,819.2002
2015-11-09 07:28:01,855.3898,860.3247,814.26526,817.55524
2015-11-09 07:28:01,850.45483,858.67975,817.55524,819.2002
2015-11-09 07:28:01,852.0998,860.3247,812.6203,817.55524
2015-11-09 07:28:01,850.45483,861.9697,812.6203,809.3303
2015-11-09 07:28:01,847.16486,858.67975,812.6203,814.26526
2015-11-09 07:28:01,847.16486,858.67975,812.6203,814.26526
2015-11-09 07:28:01,845.5199,858.67975,814.26526,817.55524
2015-11-09 07:28:01,842.2299,857.0347,810.9753,819.2002
2015-11-09 07:28:01,840.58496,855.3898,806.04034,814.26526
2015-11-09 07:28:01,848.8099,853.7448,809.3303,822.4902
2015-11-09 07:28:01,843.87494,850.45483,807.68536,812.6203
2015-11-09 07:28:01,847.16486,850.45483,807.68536,817.55524
