TimeStamp,RAW_TP9,RAW_FP1,RAW_FP2,RAW_TP10
2015-11-09 07:48:50,866.90466,860.3247,845.5199,832.36005
2015-11-09 07:48:50,853.7448,858.67975,840.58496,834.005
2015-11-09 07:48:50,855.3898,860.3247,838.94,824.13513
2015-11-09 07:48:50,857.0347,857.0347,842.2299,834.005
2015-11-09 07:48:50,847.16486,857.0347,837.295,822.4902
2015-11-09 07:48:50,857.0347,855.3898,842.2299,832.36005
2015-11-09 07:48:50,843.87494,857.0347,838.94,822.4902
2015-11-09 07:48:50,850.45483,855.3898,837.295,827.4251
2015-11-09 07:48:50,853.7448,857.0347,837.295,830.7151
2015-11-09 07:48:50,855.3898,860.3247,834.005,820.8452
2015-11-09 07:48:50,863.6147,857.0347,835.65,834.005
2015-11-09 07:48:50,861.9697,860.3247,832.36005,819.2002
2015-11-09 07:48:50,868.5496,855.3898,837.295,832.36005
2015-11-09 07:48:50,840.58496,853.7448,834.005,819.2002
2015-11-09 07:48:50,850.45483,852.0998,837.295,834.005
2015-11-09 07:48:50,837.295,850.45483,834.005,819.2002
2015-11-09 07:48:50,852.0998,852.0998,840.58496,832.36005
2015-11-09 07:48:50,848.8099,855.3898,838.94,832.36005
2015-11-09 07:48:50,857.0347,855.3898,840.58496,834.005
2015-11-09 07:48:50,861.9697,852.0998,843.87494,842.2299
2015-11-09 07:48:50,860.3247,855.3898,840.58496,825.78015
2015-11-09 07:48:50,861.9697,853.7448,847.16486,843.87494
2015-11-09 07:48:50,848.8099,853.7448,838.94,827.4251
2015-11-09 07:48:50,855.3898,852.0998,842.2299,835.65
2015-11-09 07:48:50,853.7448,850.45483,842.2299,835.65
2015-11-09 07:48:50,857.0347,850.45483,842.2299,832.36005
2015-11-09 07:48:50,855.3898,853.7448,842.2299,834.005
2015-11-09 07:48:50,852.0998,853.7448,840.58496,834.005
2015-11-09 07:48:50,858.67975,853.7448,838.94,834.005
2015-11-09 07:48:50,845.5199,853.7448,838.94,835.65
2015-11-09 07:48:50,853.7448,853.7448,837.295,829.07007
2015-11-09 07:48:50,850.45483,857.0347,827.4251,817.55524
2015-11-09 07:48:50,847.16486,850.45483,832.36005,822.4902
2015-11-09 07:48:50,843.87494,850.45483,837.295,827.4251
2015-11-09 07:48:50,830.7151,850.45483,840.58496,834.005
2015-11-09 07:48:50,838.94,852.0998,843.87494,838.94
2015-11-09 07:48:50,840.58496,853.7448,837.295,825.78015
2015-11-09 07:48:50,848.8099,855.3898,832.36005,824.13513
2015-11-09 07:48:50,843.87494,848.8099,838.94,837.295
2015-11-09 07:48:50,837.295,853.7448,840.58496,825.78015
2015-11-09 07:48:50,845.5199,853.7448,838.94,832.36005
2015-11-09 07:48:50,850.45483,857.0347,842.2299,827.4251
2015-11-09 07:48:50,853.7448,857.0347,845.5199,837.295
2015-11-09 07:48:50,838.94,853.7448,835.65,822.4902
2015-11-09 07:48:50,853.7448,848.8099,840.58496,830.7151
2015-11-09 07:48:50,857.0347,850.45483,840.58496,830.7151
2015-11-09 07:48:50,852.0998,853.7448,842.2299,825.78015
2015-11-09 07:48:50,847.16486,857.0347,840.58496,820.8452
2015-11-09 07:48:51,842.2299,853.7448,842.2299,825.78015
2015-11-09 07:48:51,837.295,850.45483,838.94,819.2002
2015-11-09 07:48:51,847.16486,852.0998,840.58496,817.55524
2015-11-09 07:48:51,845.5199,850.45483,843.87494,827.4251
2015-11-09 07:48:51,840.58496,852.0998,840.58496,815.9103
2015-11-09 07:48:51,845.5199,852.0998,845.5199,819.2002
2015-11-09 07:48:51,838.94,853.7448,840.58496,820.8452
2015-11-09 07:48:51,843.87494,855.3898,845.5199,824.13513
2015-11-09 07:48:51,840.58496,863.6147,843.87494,814.26526
2015-11-09 07:48:51,847.16486,861.9697,847.16486,824.13513
2015-11-09 07:48:51,852.0998,858.67975,845.5199,822.4902
2015-11-09 07:48:51,857.0347,858.67975,847.16486,824.13513
2015-11-09 07:48:51,847.16486,855.3898,845.5199,822.4902
2015-11-09 07:48:51,855.3898,858.67975,847.16486,827.4251
2015-11-09 07:48:51,855.3898,858.67975,850.45483,825.78015
2015-11-09 07:48:51,858.67975,857.0347,850.45483,834.005
2015-11-09 07:48:51,863.6147,863.6147,855.3898,834.005
2015-11-09 07:48:51,855.3898,868.5496,852.0998,825.78015
2015-11-09 07:48:51,857.0347,871.8396,855.3898,837.295
2015-11-09 07:48:51,857.0347,868.5496,855.3898,837.295
2015-11-09 07:48:51,852.0998,861.9697,857.0347,842.2299
2015-11-09 07:48:51,852.0998,866.90466,853.7448,835.65
2015-11-09 07:48:51,860.3247,866.90466,853.7448,842.2299
2015-11-09 07:48:51,863.6147,871.8396,853.7448,832.36005
2015-11-09 07:48:51,861.9697,866.90466,855.3898,837.295
2015-11-09 07:48:51,857.0347,860.3247,853.7448,835.65
2015-11-09 07:48:51,855.3898,868.5496,852.0998,840.58496
2015-11-09 07:48:51,857.0347,865.25964,848.8099,835.65
2015-11-09 07:48:51,845.5199,863.6147,848.8099,842.2299
2015-11-09 07:48:51,838.94,855.3898,848.8099,838.94
2015-11-09 07:48:51,853.7448,857.0347,840.58496,832.36005
2015-11-09 07:48:51,860.3247,865.25964,840.58496,842.2299
2015-11-09 07:48:51,838.94,857.0347,845.5199,814.26526
2015-11-09 07:48:51,824.13513,860.3247,838.94,796.1705
2015-11-09 07:48:51,807.68536,852.0998,840.58496,794.5255
2015-11-09 07:48:51,789.5906,847.16486,834.005,773.14075
2015-11-09 07:48:51,783.0106,852.0998,829.07007,761.6259
2015-11-09 07:48:51,776.4307,850.45483,834.005,753.401
2015-11-09 07:48:51,768.2058,843.87494,829.07007,743.5311
2015-11-09 07:48:51,755.04596,845.5199,829.07007,735.3062
2015-11-09 07:48:51,761.6259,843.87494,827.4251,740.24115
2015-11-09 07:48:51,753.401,837.295,827.4251,730.3713
2015-11-09 07:48:51,758.33594,843.87494,825.78015,718.8564
2015-11-09 07:48:51,776.4307,845.5199,825.78015,733.66125
2015-11-09 07:48:51,774.78577,845.5199,832.36005,735.3062
2015-11-09 07:48:51,779.7207,847.16486,829.07007,751.75604
2015-11-09 07:48:51,774.78577,850.45483,827.4251,740.24115
2015-11-09 07:48:51,796.1705,848.8099,830.7151,753.401
2015-11-09 07:48:51,797.8155,845.5199,829.07007,763.2709
2015-11-09 07:48:51,802.7504,847.16486,830.7151,763.2709
2015-11-09 07:48:51,814.26526,848.8099,832.36005,774.78577
2015-11-09 07:48:51,802.7504,852.0998,834.005,778.0757
2015-11-09 07:48:51,797.8155,848.8099,827.4251,773.14075
2015-11-09 07:48:51,806.04034,847.16486,834.005,779.7207
2015-11-09 07:48:51,799.46045,850.45483,832.36005,783.0106
2015-11-09 07:48:51,809.3303,848.8099,830.7151,789.5906
2015-11-09 07:48:51,822.4902,848.8099,837.295,789.5906
2015-11-09 07:48:51,819.2002,853.7448,834.005,786.3006
2015-11-09 07:48:51,829.07007,855.3898,835.65,786.3006
2015-11-09 07:48:51,827.4251,852.0998,835.65,787.94556
2015-11-09 07:48:51,824.13513,853.7448,835.65,809.3303
2015-11-09 07:48:51,820.8452,848.8099,837.295,796.1705
2015-11-09 07:48:51,830.7151,847.16486,842.2299,799.46045
2015-11-09 07:48:51,837.295,853.7448,840.58496,799.46045
2015-11-09 07:48:51,845.5199,852.0998,843.87494,810.9753
2015-11-09 07:48:51,853.7448,852.0998,842.2299,815.9103
2015-11-09 07:48:51,845.5199,855.3898,838.94,794.5255
2015-11-09 07:48:51,853.7448,850.45483,843.87494,797.8155
2015-11-09 07:48:51,855.3898,850.45483,837.295,801.1054
2015-11-09 07:48:51,852.0998,853.7448,837.295,802.7504
2015-11-09 07:48:51,852.0998,855.3898,843.87494,819.2002
2015-11-09 07:48:51,838.94,848.8099,845.5199,817.55524
2015-11-09 07:48:51,835.65,845.5199,840.58496,815.9103
2015-11-09 07:48:51,847.16486,853.7448,845.5199,819.2002
2015-11-09 07:48:51,845.5199,858.67975,837.295,804.3954
2015-11-09 07:48:51,845.5199,857.0347,845.5199,802.7504
2015-11-09 07:48:51,847.16486,853.7448,845.5199,810.9753
2015-11-09 07:48:51,847.16486,853.7448,843.87494,819.2002
2015-11-09 07:48:51,843.87494,855.3898,838.94,804.3954
2015-11-09 07:48:51,860.3247,863.6147,835.65,807.68536
2015-11-09 07:48:51,857.0347,858.67975,845.5199,817.55524
2015-11-09 07:48:51,855.3898,852.0998,847.16486,809.3303
2015-11-09 07:48:51,860.3247,855.3898,845.5199,820.8452
2015-11-09 07:48:51,845.5199,855.3898,850.45483,822.4902
2015-11-09 07:48:51,845.5199,850.45483,848.8099,820.8452
2015-11-09 07:48:51,850.45483,857.0347,848.8099,810.9753
2015-11-09 07:48:51,845.5199,853.7448,852.0998,824.13513
2015-11-09 07:48:51,835.65,850.45483,847.16486,817.55524
2015-11-09 07:48:51,847.16486,853.7448,848.8099,815.9103
2015-11-09 07:48:51,830.7151,853.7448,848.8099,810.9753
2015-11-09 07:48:51,840.58496,853.7448,852.0998,812.6203
2015-11-09 07:48:51,847.16486,853.7448,852.0998,812.6203
2015-11-09 07:48:51,840.58496,857.0347,845.5199,814.26526
2015-11-09 07:48:51,850.45483,857.0347,852.0998,815.9103
2015-11-09 07:48:51,837.295,857.0347,843.87494,797.8155
2015-11-09 07:48:51,840.58496,858.67975,847.16486,809.3303
2015-11-09 07:48:51,848.8099,848.8099,848.8099,812.6203
2015-11-09 07:48:51,850.45483,850.45483,845.5199,809.3303
2015-11-09 07:48:51,842.2299,858.67975,845.5199,806.04034
2015-11-09 07:48:51,853.7448,855.3898,847.16486,802.7504
2015-11-09 07:48:51,843.87494,860.3247,852.0998,815.9103
2015-11-09 07:48:51,850.45483,855.3898,847.16486,802.7504
2015-11-09 07:48:51,857.0347,848.8099,853.7448,820.8452
2015-11-09 07:48:51,845.5199,850.45483,848.8099,814.26526
2015-11-09 07:48:51,858.67975,852.0998,852.0998,815.9103
2015-11-09 07:48:51,857.0347,853.7448,850.45483,827.4251
2015-11-09 07:48:51,855.3898,855.3898,850.45483,822.4902
2015-11-09 07:48:51,843.87494,857.0347,852.0998,820.8452
2015-11-09 07:48:51,845.5199,858.67975,850.45483,820.8452
2015-11-09 07:48:51,850.45483,858.67975,855.3898,827.4251
2015-11-09 07:48:51,857.0347,857.0347,853.7448,825.78015
2015-11-09 07:48:51,858.67975,853.7448,857.0347,845.5199
2015-11-09 07:48:51,857.0347,860.3247,853.7448,834.005
2015-11-09 07:48:51,863.6147,860.3247,852.0998,832.36005
2015-11-09 07:48:51,871.8396,863.6147,848.8099,837.295
2015-11-09 07:48:51,865.25964,861.9697,855.3898,827.4251
2015-11-09 07:48:51,866.90466,858.67975,860.3247,840.58496
2015-11-09 07:48:51,865.25964,857.0347,855.3898,838.94
2015-11-09 07:48:51,858.67975,860.3247,860.3247,832.36005
2015-11-09 07:48:51,863.6147,858.67975,863.6147,850.45483
2015-11-09 07:48:51,863.6147,861.9697,860.3247,830.7151
2015-11-09 07:48:51,860.3247,863.6147,861.9697,819.2002
2015-11-09 07:48:51,863.6147,860.3247,861.9697,825.78015
2015-11-09 07:48:51,868.5496,855.3898,868.5496,835.65
2015-11-09 07:48:51,860.3247,857.0347,871.8396,837.295
2015-11-09 07:48:51,860.3247,863.6147,868.5496,827.4251
2015-11-09 07:48:51,863.6147,857.0347,870.1946,829.07007
2015-11-09 07:48:51,853.7448,857.0347,871.8396,827.4251
2015-11-09 07:48:51,847.16486,852.0998,870.1946,829.07007
2015-11-09 07:48:51,855.3898,850.45483,871.8396,835.65
2015-11-09 07:48:51,845.5199,853.7448,858.67975,815.9103
2015-11-09 07:48:51,860.3247,855.3898,868.5496,829.07007
2015-11-09 07:48:51,865.25964,853.7448,868.5496,830.7151
2015-11-09 07:48:51,861.9697,853.7448,866.90466,830.7151
2015-11-09 07:48:51,861.9697,852.0998,871.8396,830.7151
2015-11-09 07:48:51,857.0347,857.0347,860.3247,829.07007
2015-11-09 07:48:51,858.67975,853.7448,865.25964,834.005
2015-11-09 07:48:51,861.9697,855.3898,865.25964,822.4902
2015-11-09 07:48:51,853.7448,857.0347,866.90466,819.2002
2015-11-09 07:48:51,848.8099,850.45483,863.6147,810.9753
2015-11-09 07:48:51,853.7448,850.45483,866.90466,815.9103
2015-11-09 07:48:51,845.5199,853.7448,861.9697,814.26526
2015-11-09 07:48:51,847.16486,853.7448,863.6147,824.13513
2015-11-09 07:48:51,850.45483,860.3247,861.9697,832.36005
2015-11-09 07:48:51,848.8099,858.67975,860.3247,832.36005
2015-11-09 07:48:51,845.5199,857.0347,861.9697,825.78015
2015-11-09 07:48:51,855.3898,858.67975,863.6147,829.07007
2015-11-09 07:48:51,855.3898,858.67975,863.6147,832.36005
2015-11-09 07:48:51,852.0998,857.0347,863.6147,820.8452
2015-11-09 07:48:51,858.67975,852.0998,868.5496,830.7151
2015-11-09 07:48:51,857.0347,852.0998,866.90466,820.8452
2015-11-09 07:48:51,857.0347,850.45483,868.5496,822.4902
2015-11-09 07:48:51,855.3898,855.3898,863.6147,825.78015
2015-11-09 07:48:51,863.6147,855.3898,863.6147,822.4902
2015-11-09 07:48:51,863.6147,855.3898,863.6147,822.4902
2015-11-09 07:48:51,855.3898,855.3898,866.90466,820.8452
2015-11-09 07:48:51,858.67975,857.0347,866.90466,815.9103
2015-11-09 07:48:51,863.6147,857.0347,866.90466,824.13513
2015-11-09 07:48:51,860.3247,850.45483,863.6147,827.4251
2015-11-09 07:48:51,878.4195,852.0998,865.25964,824.13513
2015-11-09 07:48:51,860.3247,852.0998,870.1946,822.4902
2015-11-09 07:48:51,848.8099,861.9697,871.8396,814.26526
2015-11-09 07:48:51,861.9697,860.3247,866.90466,810.9753
2015-11-09 07:48:51,861.9697,860.3247,861.9697,814.26526
2015-11-09 07:48:51,873.48456,855.3898,866.90466,817.55524
2015-11-09 07:48:51,860.3247,852.0998,868.5496,812.6203
2015-11-09 07:48:51,853.7448,858.67975,868.5496,812.6203
2015-11-09 07:48:51,855.3898,857.0347,868.5496,817.55524
2015-11-09 07:48:51,853.7448,855.3898,861.9697,807.68536
2015-11-09 07:48:51,860.3247,853.7448,865.25964,807.68536
2015-11-09 07:48:51,853.7448,852.0998,863.6147,827.4251
2015-11-09 07:48:51,853.7448,858.67975,857.0347,802.7504
2015-11-09 07:48:51,863.6147,857.0347,857.0347,810.9753
2015-11-09 07:48:51,858.67975,858.67975,861.9697,807.68536
2015-11-09 07:48:51,855.3898,857.0347,858.67975,806.04034
2015-11-09 07:48:51,858.67975,855.3898,860.3247,807.68536
2015-11-09 07:48:51,866.90466,860.3247,853.7448,809.3303
2015-11-09 07:48:51,861.9697,853.7448,853.7448,804.3954
2015-11-09 07:48:51,847.16486,847.16486,857.0347,789.5906
2015-11-09 07:48:51,853.7448,848.8099,850.45483,801.1054
2015-11-09 07:48:51,857.0347,858.67975,845.5199,797.8155
2015-11-09 07:48:51,858.67975,860.3247,857.0347,791.23553
2015-11-09 07:48:51,871.8396,866.90466,858.67975,796.1705
2015-11-09 07:48:51,861.9697,857.0347,857.0347,792.88055
2015-11-09 07:48:51,852.0998,852.0998,855.3898,791.23553
2015-11-09 07:48:51,857.0347,855.3898,848.8099,794.5255
2015-11-09 07:48:51,848.8099,853.7448,845.5199,796.1705
2015-11-09 07:48:51,850.45483,855.3898,857.0347,783.0106
2015-11-09 07:48:51,845.5199,855.3898,853.7448,779.7207
2015-11-09 07:48:51,847.16486,852.0998,852.0998,792.88055
2015-11-09 07:48:51,835.65,852.0998,850.45483,784.65564
2015-11-09 07:48:51,837.295,848.8099,848.8099,796.1705
2015-11-09 07:48:51,837.295,852.0998,845.5199,794.5255
2015-11-09 07:48:51,847.16486,853.7448,845.5199,792.88055
2015-11-09 07:48:51,852.0998,853.7448,850.45483,797.8155
2015-11-09 07:48:51,845.5199,853.7448,855.3898,791.23553
2015-11-09 07:48:51,840.58496,848.8099,852.0998,799.46045
2015-11-09 07:48:51,832.36005,848.8099,848.8099,799.46045
2015-11-09 07:48:51,848.8099,848.8099,845.5199,802.7504
2015-11-09 07:48:51,848.8099,852.0998,847.16486,799.46045
2015-11-09 07:48:51,853.7448,850.45483,845.5199,804.3954
2015-11-09 07:48:51,850.45483,845.5199,848.8099,801.1054
2015-11-09 07:48:51,848.8099,853.7448,848.8099,812.6203
2015-11-09 07:48:51,852.0998,858.67975,845.5199,817.55524
2015-11-09 07:48:51,855.3898,858.67975,848.8099,806.04034
2015-11-09 07:48:51,845.5199,857.0347,845.5199,815.9103
2015-11-09 07:48:51,853.7448,855.3898,842.2299,822.4902
2015-11-09 07:48:51,850.45483,850.45483,840.58496,819.2002
2015-11-09 07:48:51,857.0347,852.0998,845.5199,820.8452
2015-11-09 07:48:51,860.3247,848.8099,850.45483,830.7151
2015-11-09 07:48:52,848.8099,852.0998,852.0998,834.005
2015-11-09 07:48:52,842.2299,850.45483,852.0998,835.65
2015-11-09 07:48:52,840.58496,853.7448,848.8099,825.78015
2015-11-09 07:48:52,845.5199,850.45483,850.45483,835.65
2015-11-09 07:48:52,845.5199,850.45483,848.8099,838.94
2015-11-09 07:48:52,848.8099,853.7448,852.0998,847.16486
2015-11-09 07:48:52,840.58496,853.7448,852.0998,843.87494
2015-11-09 07:48:52,845.5199,848.8099,848.8099,837.295
2015-11-09 07:48:52,855.3898,843.87494,847.16486,840.58496
2015-11-09 07:48:52,860.3247,852.0998,840.58496,832.36005
2015-11-09 07:48:52,852.0998,853.7448,845.5199,837.295
2015-11-09 07:48:52,848.8099,857.0347,842.2299,824.13513
2015-11-09 07:48:52,843.87494,852.0998,852.0998,840.58496
2015-11-09 07:48:52,847.16486,843.87494,855.3898,837.295
2015-11-09 07:48:52,847.16486,858.67975,845.5199,830.7151
2015-11-09 07:48:52,843.87494,860.3247,847.16486,837.295
2015-11-09 07:48:52,850.45483,855.3898,845.5199,838.94
2015-11-09 07:48:52,838.94,852.0998,843.87494,834.005
2015-11-09 07:48:52,845.5199,848.8099,847.16486,837.295
2015-11-09 07:48:52,847.16486,853.7448,845.5199,829.07007
2015-11-09 07:48:52,840.58496,858.67975,842.2299,824.13513
2015-11-09 07:48:52,845.5199,857.0347,842.2299,825.78015
2015-11-09 07:48:52,855.3898,852.0998,843.87494,814.26526
2015-11-09 07:48:52,858.67975,850.45483,847.16486,814.26526
2015-11-09 07:48:52,855.3898,853.7448,842.2299,829.07007
2015-11-09 07:48:52,845.5199,850.45483,842.2299,824.13513
2015-11-09 07:48:52,848.8099,845.5199,848.8099,820.8452
2015-11-09 07:48:52,843.87494,848.8099,843.87494,822.4902
2015-11-09 07:48:52,855.3898,855.3898,842.2299,822.4902
2015-11-09 07:48:52,863.6147,855.3898,843.87494,829.07007
2015-11-09 07:48:52,863.6147,863.6147,838.94,817.55524
2015-11-09 07:48:52,860.3247,853.7448,848.8099,830.7151
2015-11-09 07:48:52,850.45483,852.0998,842.2299,815.9103
2015-11-09 07:48:52,842.2299,855.3898,840.58496,834.005
2015-11-09 07:48:52,843.87494,855.3898,845.5199,820.8452
2015-11-09 07:48:52,847.16486,860.3247,842.2299,814.26526
2015-11-09 07:48:52,857.0347,855.3898,848.8099,834.005
2015-11-09 07:48:52,850.45483,858.67975,845.5199,820.8452
2015-11-09 07:48:52,857.0347,860.3247,842.2299,820.8452
2015-11-09 07:48:52,853.7448,858.67975,845.5199,824.13513
2015-11-09 07:48:52,838.94,855.3898,848.8099,820.8452
2015-11-09 07:48:52,853.7448,853.7448,847.16486,806.04034
2015-11-09 07:48:52,850.45483,848.8099,847.16486,804.3954
2015-11-09 07:48:52,857.0347,853.7448,845.5199,796.1705
2015-11-09 07:48:52,850.45483,858.67975,850.45483,807.68536
2015-11-09 07:48:52,842.2299,853.7448,847.16486,820.8452
2015-11-09 07:48:52,850.45483,858.67975,845.5199,812.6203
2015-11-09 07:48:52,855.3898,857.0347,845.5199,810.9753
2015-11-09 07:48:52,857.0347,858.67975,847.16486,814.26526
2015-11-09 07:48:52,861.9697,861.9697,848.8099,817.55524
2015-11-09 07:48:52,850.45483,860.3247,843.87494,814.26526
2015-11-09 07:48:52,865.25964,860.3247,845.5199,810.9753
2015-11-09 07:48:52,855.3898,860.3247,842.2299,812.6203
2015-11-09 07:48:52,842.2299,860.3247,840.58496,804.3954
2015-11-09 07:48:52,857.0347,857.0347,843.87494,807.68536
2015-11-09 07:48:52,842.2299,858.67975,835.65,792.88055
2015-11-09 07:48:52,852.0998,860.3247,834.005,810.9753
2015-11-09 07:48:52,848.8099,865.25964,840.58496,819.2002
2015-11-09 07:48:52,830.7151,861.9697,843.87494,802.7504
2015-11-09 07:48:52,830.7151,857.0347,843.87494,809.3303
2015-11-09 07:48:52,855.3898,860.3247,847.16486,810.9753
2015-11-09 07:48:52,845.5199,858.67975,845.5199,814.26526
2015-11-09 07:48:52,850.45483,858.67975,842.2299,820.8452
2015-11-09 07:48:52,835.65,858.67975,843.87494,804.3954
2015-11-09 07:48:52,837.295,858.67975,838.94,804.3954
2015-11-09 07:48:52,860.3247,857.0347,840.58496,825.78015
2015-11-09 07:48:52,843.87494,857.0347,843.87494,804.3954
2015-11-09 07:48:52,832.36005,852.0998,842.2299,815.9103
2015-11-09 07:48:52,822.4902,853.7448,843.87494,809.3303
2015-11-09 07:48:52,838.94,858.67975,837.295,812.6203
2015-11-09 07:48:52,852.0998,860.3247,840.58496,815.9103
2015-11-09 07:48:52,840.58496,858.67975,838.94,814.26526
2015-11-09 07:48:52,835.65,850.45483,843.87494,814.26526
2015-11-09 07:48:52,852.0998,855.3898,840.58496,819.2002
2015-11-09 07:48:52,857.0347,857.0347,832.36005,820.8452
2015-11-09 07:48:52,860.3247,861.9697,837.295,814.26526
2015-11-09 07:48:52,868.5496,861.9697,840.58496,807.68536
2015-11-09 07:48:52,847.16486,860.3247,837.295,815.9103
2015-11-09 07:48:52,858.67975,858.67975,840.58496,810.9753
2015-11-09 07:48:52,863.6147,848.8099,842.2299,815.9103
2015-11-09 07:48:52,853.7448,855.3898,838.94,812.6203
2015-11-09 07:48:52,843.87494,861.9697,843.87494,822.4902
2015-11-09 07:48:52,837.295,850.45483,842.2299,820.8452
2015-11-09 07:48:52,835.65,853.7448,838.94,825.78015
2015-11-09 07:48:52,837.295,850.45483,847.16486,824.13513
2015-11-09 07:48:52,840.58496,850.45483,843.87494,819.2002
2015-11-09 07:48:52,832.36005,853.7448,840.58496,815.9103
2015-11-09 07:48:52,842.2299,853.7448,835.65,815.9103
2015-11-09 07:48:52,837.295,852.0998,842.2299,819.2002
2015-11-09 07:48:52,834.005,850.45483,845.5199,814.26526
2015-11-09 07:48:52,834.005,858.67975,843.87494,814.26526
2015-11-09 07:48:52,840.58496,855.3898,840.58496,820.8452
2015-11-09 07:48:52,843.87494,850.45483,835.65,834.005
2015-11-09 07:48:52,850.45483,855.3898,838.94,837.295
2015-11-09 07:48:52,850.45483,850.45483,843.87494,832.36005
2015-11-09 07:48:52,837.295,857.0347,850.45483,837.295
2015-11-09 07:48:52,853.7448,860.3247,843.87494,837.295
2015-11-09 07:48:52,845.5199,858.67975,843.87494,825.78015
2015-11-09 07:48:52,835.65,861.9697,838.94,827.4251
2015-11-09 07:48:52,837.295,858.67975,840.58496,835.65
2015-11-09 07:48:52,853.7448,861.9697,838.94,840.58496
2015-11-09 07:48:52,865.25964,865.25964,837.295,860.3247
2015-11-09 07:48:52,857.0347,858.67975,838.94,842.2299
2015-11-09 07:48:52,837.295,860.3247,838.94,845.5199
2015-11-09 07:48:52,842.2299,857.0347,843.87494,847.16486
2015-11-09 07:48:52,838.94,853.7448,842.2299,843.87494
2015-11-09 07:48:52,838.94,857.0347,843.87494,857.0347
2015-11-09 07:48:52,842.2299,855.3898,840.58496,860.3247
2015-11-09 07:48:52,832.36005,855.3898,840.58496,853.7448
2015-11-09 07:48:52,855.3898,865.25964,843.87494,857.0347
2015-11-09 07:48:52,835.65,858.67975,840.58496,852.0998
2015-11-09 07:48:52,825.78015,855.3898,842.2299,853.7448
2015-11-09 07:48:52,825.78015,852.0998,842.2299,861.9697
2015-11-09 07:48:52,852.0998,853.7448,842.2299,855.3898
2015-11-09 07:48:52,863.6147,855.3898,845.5199,857.0347
2015-11-09 07:48:52,853.7448,853.7448,840.58496,861.9697
2015-11-09 07:48:52,843.87494,860.3247,834.005,860.3247
2015-11-09 07:48:52,827.4251,855.3898,837.295,870.1946
2015-11-09 07:48:52,840.58496,857.0347,840.58496,855.3898
2015-11-09 07:48:52,845.5199,858.67975,842.2299,863.6147
2015-11-09 07:48:52,837.295,857.0347,842.2299,853.7448
2015-11-09 07:48:52,852.0998,861.9697,835.65,850.45483
2015-11-09 07:48:52,855.3898,858.67975,842.2299,852.0998
2015-11-09 07:48:52,855.3898,858.67975,843.87494,861.9697
2015-11-09 07:48:52,855.3898,857.0347,842.2299,853.7448
2015-11-09 07:48:52,853.7448,860.3247,842.2299,847.16486
2015-11-09 07:48:52,855.3898,861.9697,840.58496,855.3898
2015-11-09 07:48:52,853.7448,863.6147,840.58496,852.0998
2015-11-09 07:48:52,852.0998,861.9697,838.94,855.3898
2015-11-09 07:48:52,852.0998,860.3247,835.65,852.0998
2015-11-09 07:48:52,838.94,860.3247,840.58496,852.0998
2015-11-09 07:48:52,834.005,857.0347,835.65,860.3247
2015-11-09 07:48:52,840.58496,853.7448,838.94,860.3247
2015-11-09 07:48:52,837.295,855.3898,840.58496,852.0998
2015-11-09 07:48:52,840.58496,853.7448,842.2299,852.0998
2015-11-09 07:48:52,858.67975,853.7448,843.87494,865.25964
2015-11-09 07:48:52,853.7448,863.6147,840.58496,863.6147
2015-11-09 07:48:52,855.3898,860.3247,842.2299,868.5496
2015-11-09 07:48:52,842.2299,861.9697,837.295,850.45483
2015-11-09 07:48:52,855.3898,857.0347,838.94,857.0347
2015-11-09 07:48:52,848.8099,853.7448,834.005,868.5496
2015-11-09 07:48:52,865.25964,858.67975,837.295,863.6147
2015-11-09 07:48:52,863.6147,861.9697,842.2299,865.25964
2015-11-09 07:48:52,852.0998,860.3247,842.2299,863.6147
2015-11-09 07:48:52,837.295,853.7448,843.87494,861.9697
2015-11-09 07:48:52,843.87494,861.9697,838.94,853.7448
2015-11-09 07:48:52,848.8099,858.67975,838.94,861.9697
2015-11-09 07:48:52,842.2299,858.67975,837.295,840.58496
2015-11-09 07:48:52,850.45483,860.3247,840.58496,861.9697
2015-11-09 07:48:52,834.005,861.9697,834.005,858.67975
2015-11-09 07:48:52,845.5199,865.25964,842.2299,865.25964
2015-11-09 07:48:52,842.2299,858.67975,835.65,843.87494
2015-11-09 07:48:52,838.94,857.0347,835.65,848.8099
2015-11-09 07:48:52,848.8099,857.0347,837.295,857.0347
2015-11-09 07:48:52,855.3898,865.25964,838.94,873.48456
2015-11-09 07:48:52,847.16486,863.6147,837.295,868.5496
2015-11-09 07:48:52,855.3898,860.3247,838.94,853.7448
2015-11-09 07:48:52,838.94,855.3898,842.2299,861.9697
2015-11-09 07:48:52,838.94,855.3898,835.65,865.25964
2015-11-09 07:48:52,850.45483,855.3898,840.58496,870.1946
2015-11-09 07:48:52,843.87494,857.0347,837.295,855.3898
2015-11-09 07:48:52,850.45483,850.45483,837.295,855.3898
2015-11-09 07:48:52,852.0998,861.9697,829.07007,858.67975
2015-11-09 07:48:52,858.67975,858.67975,837.295,860.3247
2015-11-09 07:48:52,842.2299,853.7448,842.2299,850.45483
2015-11-09 07:48:52,843.87494,865.25964,843.87494,834.005
2015-11-09 07:48:52,838.94,852.0998,847.16486,843.87494
2015-11-09 07:48:52,843.87494,855.3898,837.295,838.94
2015-11-09 07:48:52,861.9697,866.90466,838.94,840.58496
2015-11-09 07:48:52,857.0347,858.67975,838.94,832.36005
2015-11-09 07:48:52,847.16486,863.6147,835.65,822.4902
2015-11-09 07:48:52,855.3898,858.67975,835.65,830.7151
2015-11-09 07:48:52,848.8099,857.0347,832.36005,834.005
2015-11-09 07:48:52,843.87494,857.0347,837.295,834.005
2015-11-09 07:48:52,853.7448,858.67975,835.65,830.7151
2015-11-09 07:48:52,847.16486,858.67975,838.94,835.65
2015-11-09 07:48:52,830.7151,858.67975,832.36005,817.55524
2015-11-09 07:48:52,832.36005,857.0347,837.295,837.295
2015-11-09 07:48:52,840.58496,850.45483,837.295,829.07007
2015-11-09 07:48:52,843.87494,853.7448,834.005,817.55524
2015-11-09 07:48:52,850.45483,858.67975,835.65,824.13513
2015-11-09 07:48:52,861.9697,861.9697,829.07007,835.65
2015-11-09 07:48:52,840.58496,858.67975,840.58496,840.58496
2015-11-09 07:48:52,842.2299,857.0347,840.58496,835.65
2015-11-09 07:48:52,850.45483,858.67975,843.87494,827.4251
2015-11-09 07:48:52,837.295,863.6147,840.58496,825.78015
2015-11-09 07:48:52,838.94,861.9697,837.295,835.65
2015-11-09 07:48:52,853.7448,855.3898,838.94,842.2299
2015-11-09 07:48:52,824.13513,852.0998,842.2299,834.005
2015-11-09 07:48:52,840.58496,860.3247,842.2299,827.4251
2015-11-09 07:48:52,842.2299,863.6147,843.87494,829.07007
2015-11-09 07:48:52,850.45483,861.9697,835.65,838.94
2015-11-09 07:48:52,860.3247,865.25964,835.65,842.2299
2015-11-09 07:48:52,850.45483,860.3247,832.36005,837.295
2015-11-09 07:48:52,845.5199,863.6147,830.7151,842.2299
2015-11-09 07:48:52,847.16486,860.3247,838.94,843.87494
2015-11-09 07:48:52,837.295,853.7448,838.94,852.0998
2015-11-09 07:48:52,842.2299,860.3247,838.94,847.16486
2015-11-09 07:48:52,848.8099,870.1946,835.65,840.58496
2015-11-09 07:48:52,850.45483,870.1946,838.94,848.8099
2015-11-09 07:48:52,855.3898,866.90466,842.2299,852.0998
2015-11-09 07:48:52,850.45483,853.7448,838.94,857.0347
2015-11-09 07:48:52,838.94,858.67975,838.94,838.94
2015-11-09 07:48:52,847.16486,865.25964,834.005,843.87494
2015-11-09 07:48:52,842.2299,865.25964,837.295,848.8099
2015-11-09 07:48:52,848.8099,860.3247,852.0998,857.0347
2015-11-09 07:48:52,840.58496,860.3247,845.5199,853.7448
2015-11-09 07:48:52,847.16486,860.3247,842.2299,847.16486
2015-11-09 07:48:52,853.7448,855.3898,835.65,845.5199
2015-11-09 07:48:52,842.2299,861.9697,835.65,838.94
2015-11-09 07:48:52,847.16486,852.0998,838.94,843.87494
2015-11-09 07:48:52,853.7448,858.67975,837.295,842.2299
2015-11-09 07:48:52,850.45483,861.9697,835.65,850.45483
2015-11-09 07:48:52,850.45483,863.6147,830.7151,830.7151
2015-11-09 07:48:52,847.16486,865.25964,835.65,809.3303
2015-11-09 07:48:52,840.58496,868.5496,832.36005,814.26526
2015-11-09 07:48:52,847.16486,860.3247,835.65,807.68536
2015-11-09 07:48:52,840.58496,858.67975,837.295,802.7504
2015-11-09 07:48:52,848.8099,857.0347,838.94,817.55524
2015-11-09 07:48:52,835.65,857.0347,835.65,797.8155
2015-11-09 07:48:52,840.58496,855.3898,838.94,814.26526
2015-11-09 07:48:52,838.94,855.3898,835.65,819.2002
2015-11-09 07:48:52,845.5199,861.9697,835.65,824.13513
2015-11-09 07:48:52,845.5199,858.67975,834.005,812.6203
2015-11-09 07:48:52,857.0347,865.25964,832.36005,812.6203
2015-11-09 07:48:52,850.45483,858.67975,838.94,817.55524
2015-11-09 07:48:52,850.45483,852.0998,837.295,809.3303
2015-11-09 07:48:52,853.7448,860.3247,835.65,817.55524
2015-11-09 07:48:52,838.94,858.67975,837.295,807.68536
2015-11-09 07:48:52,843.87494,858.67975,838.94,802.7504
2015-11-09 07:48:52,837.295,850.45483,838.94,806.04034
2015-11-09 07:48:52,834.005,855.3898,842.2299,807.68536
2015-11-09 07:48:52,834.005,865.25964,830.7151,804.3954
2015-11-09 07:48:52,835.65,860.3247,837.295,809.3303
2015-11-09 07:48:52,837.295,860.3247,837.295,806.04034
2015-11-09 07:48:52,845.5199,853.7448,838.94,820.8452
2015-11-09 07:48:52,843.87494,858.67975,835.65,815.9103
2015-11-09 07:48:52,855.3898,866.90466,830.7151,824.13513
2015-11-09 07:48:52,855.3898,858.67975,832.36005,824.13513
2015-11-09 07:48:52,843.87494,852.0998,838.94,825.78015
2015-11-09 07:48:52,837.295,858.67975,837.295,820.8452
2015-11-09 07:48:52,843.87494,861.9697,832.36005,804.3954
2015-11-09 07:48:53,838.94,857.0347,842.2299,807.68536
2015-11-09 07:48:53,845.5199,860.3247,838.94,827.4251
2015-11-09 07:48:53,855.3898,855.3898,838.94,837.295
2015-11-09 07:48:53,842.2299,855.3898,840.58496,819.2002
2015-11-09 07:48:53,838.94,860.3247,837.295,812.6203
2015-11-09 07:48:53,848.8099,853.7448,840.58496,817.55524
2015-11-09 07:48:53,835.65,857.0347,842.2299,807.68536
2015-11-09 07:48:53,835.65,860.3247,842.2299,825.78015
2015-11-09 07:48:53,835.65,852.0998,835.65,827.4251
2015-11-09 07:48:53,837.295,861.9697,827.4251,804.3954
2015-11-09 07:48:53,853.7448,858.67975,840.58496,827.4251
2015-11-09 07:48:53,845.5199,855.3898,843.87494,830.7151
2015-11-09 07:48:53,842.2299,853.7448,840.58496,819.2002
2015-11-09 07:48:53,837.295,855.3898,838.94,820.8452
2015-11-09 07:48:53,829.07007,858.67975,832.36005,806.04034
2015-11-09 07:48:53,845.5199,860.3247,837.295,814.26526
2015-11-09 07:48:53,852.0998,860.3247,835.65,814.26526
2015-11-09 07:48:53,843.87494,858.67975,838.94,817.55524
2015-11-09 07:48:53,852.0998,857.0347,837.295,820.8452
2015-11-09 07:48:53,845.5199,860.3247,837.295,817.55524
2015-11-09 07:48:53,842.2299,857.0347,837.295,814.26526
2015-11-09 07:48:53,840.58496,857.0347,834.005,822.4902
2015-11-09 07:48:53,842.2299,860.3247,832.36005,809.3303
2015-11-09 07:48:53,845.5199,863.6147,835.65,817.55524
2015-11-09 07:48:53,837.295,860.3247,847.16486,822.4902
2015-11-09 07:48:53,838.94,863.6147,840.58496,809.3303
2015-11-09 07:48:53,848.8099,857.0347,840.58496,819.2002
2015-11-09 07:48:53,842.2299,847.16486,840.58496,815.9103
2015-11-09 07:48:53,843.87494,855.3898,837.295,820.8452
2015-11-09 07:48:53,840.58496,858.67975,834.005,817.55524
2015-11-09 07:48:53,852.0998,858.67975,837.295,817.55524
2015-11-09 07:48:53,838.94,865.25964,834.005,806.04034
2015-11-09 07:48:53,843.87494,857.0347,835.65,820.8452
2015-11-09 07:48:53,830.7151,853.7448,834.005,809.3303
2015-11-09 07:48:53,829.07007,853.7448,837.295,807.68536
2015-11-09 07:48:53,834.005,853.7448,840.58496,822.4902
2015-11-09 07:48:53,822.4902,858.67975,843.87494,825.78015
2015-11-09 07:48:53,817.55524,855.3898,843.87494,827.4251
2015-11-09 07:48:53,834.005,858.67975,842.2299,829.07007
2015-11-09 07:48:53,847.16486,855.3898,840.58496,819.2002
2015-11-09 07:48:53,848.8099,853.7448,842.2299,832.36005
2015-11-09 07:48:53,840.58496,857.0347,835.65,835.65
2015-11-09 07:48:53,847.16486,853.7448,834.005,830.7151
2015-11-09 07:48:53,842.2299,843.87494,845.5199,834.005
2015-11-09 07:48:53,838.94,857.0347,842.2299,832.36005
2015-11-09 07:48:53,837.295,866.90466,838.94,837.295
2015-11-09 07:48:53,832.36005,858.67975,834.005,825.78015
2015-11-09 07:48:53,832.36005,858.67975,832.36005,820.8452
2015-11-09 07:48:53,827.4251,855.3898,838.94,825.78015
2015-11-09 07:48:53,842.2299,857.0347,842.2299,817.55524
2015-11-09 07:48:53,848.8099,858.67975,843.87494,835.65
2015-11-09 07:48:53,842.2299,858.67975,837.295,838.94
2015-11-09 07:48:53,843.87494,853.7448,835.65,827.4251
2015-11-09 07:48:53,837.295,857.0347,838.94,829.07007
2015-11-09 07:48:53,834.005,863.6147,832.36005,819.2002
2015-11-09 07:48:53,840.58496,861.9697,832.36005,807.68536
2015-11-09 07:48:53,830.7151,860.3247,837.295,815.9103
2015-11-09 07:48:53,838.94,863.6147,834.005,810.9753
2015-11-09 07:48:53,834.005,865.25964,840.58496,815.9103
2015-11-09 07:48:53,842.2299,865.25964,835.65,809.3303
2015-11-09 07:48:53,848.8099,860.3247,835.65,819.2002
2015-11-09 07:48:53,842.2299,860.3247,834.005,819.2002
2015-11-09 07:48:53,840.58496,850.45483,847.16486,827.4251
2015-11-09 07:48:53,822.4902,857.0347,843.87494,825.78015
2015-11-09 07:48:53,827.4251,860.3247,847.16486,824.13513
2015-11-09 07:48:53,835.65,860.3247,843.87494,825.78015
2015-11-09 07:48:53,842.2299,855.3898,840.58496,822.4902
2015-11-09 07:48:53,840.58496,850.45483,837.295,824.13513
2015-11-09 07:48:53,838.94,853.7448,832.36005,819.2002
2015-11-09 07:48:53,845.5199,858.67975,832.36005,827.4251
2015-11-09 07:48:53,837.295,866.90466,834.005,824.13513
2015-11-09 07:48:53,843.87494,861.9697,832.36005,825.78015
2015-11-09 07:48:53,827.4251,860.3247,835.65,807.68536
2015-11-09 07:48:53,847.16486,857.0347,837.295,801.1054
2015-11-09 07:48:53,861.9697,858.67975,837.295,825.78015
2015-11-09 07:48:53,863.6147,861.9697,840.58496,832.36005
2015-11-09 07:48:53,865.25964,865.25964,837.295,825.78015
2015-11-09 07:48:53,866.90466,863.6147,835.65,840.58496
2015-11-09 07:48:53,857.0347,860.3247,829.07007,814.26526
2015-11-09 07:48:53,860.3247,861.9697,837.295,829.07007
2015-11-09 07:48:53,850.45483,863.6147,837.295,815.9103
2015-11-09 07:48:53,853.7448,863.6147,834.005,814.26526
2015-11-09 07:48:53,858.67975,861.9697,840.58496,825.78015
2015-11-09 07:48:53,860.3247,857.0347,838.94,832.36005
2015-11-09 07:48:53,853.7448,861.9697,837.295,835.65
2015-11-09 07:48:53,843.87494,858.67975,835.65,819.2002
2015-11-09 07:48:53,847.16486,853.7448,835.65,820.8452
2015-11-09 07:48:53,842.2299,852.0998,834.005,804.3954
2015-11-09 07:48:53,840.58496,855.3898,832.36005,830.7151
2015-11-09 07:48:53,835.65,848.8099,840.58496,809.3303
2015-11-09 07:48:53,838.94,847.16486,834.005,825.78015
2015-11-09 07:48:53,837.295,852.0998,822.4902,820.8452
2015-11-09 07:48:53,847.16486,850.45483,835.65,819.2002
2015-11-09 07:48:53,848.8099,860.3247,838.94,827.4251
2015-11-09 07:48:53,852.0998,858.67975,840.58496,824.13513
2015-11-09 07:48:53,847.16486,860.3247,838.94,815.9103
2015-11-09 07:48:53,868.5496,863.6147,829.07007,812.6203
2015-11-09 07:48:53,855.3898,857.0347,832.36005,825.78015
2015-11-09 07:48:53,853.7448,860.3247,832.36005,812.6203
2015-11-09 07:48:53,860.3247,853.7448,834.005,843.87494
2015-11-09 07:48:53,848.8099,861.9697,830.7151,830.7151
2015-11-09 07:48:53,858.67975,858.67975,830.7151,827.4251
2015-11-09 07:48:53,863.6147,852.0998,842.2299,845.5199
2015-11-09 07:48:53,845.5199,857.0347,842.2299,827.4251
2015-11-09 07:48:53,832.36005,860.3247,827.4251,822.4902
2015-11-09 07:48:53,857.0347,863.6147,829.07007,829.07007
2015-11-09 07:48:53,850.45483,857.0347,832.36005,830.7151
2015-11-09 07:48:53,857.0347,857.0347,830.7151,840.58496
2015-11-09 07:48:53,865.25964,857.0347,832.36005,825.78015
2015-11-09 07:48:53,850.45483,853.7448,838.94,834.005
2015-11-09 07:48:53,857.0347,857.0347,837.295,835.65
2015-11-09 07:48:53,845.5199,855.3898,840.58496,824.13513
2015-11-09 07:48:53,837.295,865.25964,838.94,858.67975
2015-11-09 07:48:53,858.67975,861.9697,835.65,837.295
2015-11-09 07:48:53,861.9697,860.3247,835.65,832.36005
2015-11-09 07:48:53,865.25964,857.0347,843.87494,842.2299
2015-11-09 07:48:53,848.8099,850.45483,842.2299,830.7151
2015-11-09 07:48:53,842.2299,857.0347,832.36005,827.4251
2015-11-09 07:48:53,840.58496,852.0998,832.36005,840.58496
2015-11-09 07:48:53,850.45483,852.0998,835.65,824.13513
2015-11-09 07:48:53,858.67975,860.3247,837.295,829.07007
2015-11-09 07:48:53,847.16486,861.9697,837.295,829.07007
2015-11-09 07:48:53,848.8099,853.7448,835.65,822.4902
2015-11-09 07:48:53,840.58496,857.0347,824.13513,810.9753
2015-11-09 07:48:53,840.58496,861.9697,827.4251,824.13513
2015-11-09 07:48:53,848.8099,847.16486,835.65,810.9753
2015-11-09 07:48:53,857.0347,855.3898,840.58496,824.13513
2015-11-09 07:48:53,852.0998,857.0347,843.87494,820.8452
2015-11-09 07:48:53,837.295,857.0347,834.005,807.68536
2015-11-09 07:48:53,837.295,858.67975,837.295,830.7151
2015-11-09 07:48:53,837.295,857.0347,838.94,832.36005
2015-11-09 07:48:53,835.65,853.7448,842.2299,837.295
2015-11-09 07:48:53,835.65,852.0998,840.58496,829.07007
2015-11-09 07:48:53,834.005,857.0347,838.94,814.26526
2015-11-09 07:48:53,848.8099,858.67975,847.16486,827.4251
2015-11-09 07:48:53,847.16486,858.67975,840.58496,814.26526
2015-11-09 07:48:53,842.2299,860.3247,838.94,812.6203
2015-11-09 07:48:53,834.005,853.7448,835.65,819.2002
2015-11-09 07:48:53,837.295,853.7448,834.005,825.78015
2015-11-09 07:48:53,845.5199,863.6147,837.295,817.55524
2015-11-09 07:48:53,848.8099,865.25964,840.58496,815.9103
2015-11-09 07:48:53,850.45483,858.67975,834.005,820.8452
2015-11-09 07:48:53,848.8099,863.6147,835.65,794.5255
2015-11-09 07:48:53,855.3898,860.3247,842.2299,814.26526
2015-11-09 07:48:53,855.3898,861.9697,830.7151,809.3303
2015-11-09 07:48:53,847.16486,861.9697,835.65,810.9753
2015-11-09 07:48:53,838.94,853.7448,832.36005,806.04034
2015-11-09 07:48:53,845.5199,857.0347,835.65,809.3303
2015-11-09 07:48:53,850.45483,850.45483,843.87494,807.68536
2015-11-09 07:48:53,840.58496,853.7448,838.94,799.46045
2015-11-09 07:48:53,827.4251,855.3898,835.65,815.9103
2015-11-09 07:48:53,825.78015,857.0347,829.07007,801.1054
2015-11-09 07:48:53,835.65,858.67975,829.07007,812.6203
2015-11-09 07:48:53,834.005,852.0998,832.36005,817.55524
2015-11-09 07:48:53,843.87494,850.45483,830.7151,825.78015
2015-11-09 07:48:53,817.55524,852.0998,835.65,825.78015
2015-11-09 07:48:53,822.4902,853.7448,837.295,829.07007
2015-11-09 07:48:53,863.6147,860.3247,838.94,830.7151
2015-11-09 07:48:53,845.5199,860.3247,832.36005,819.2002
2015-11-09 07:48:53,861.9697,861.9697,830.7151,825.78015
2015-11-09 07:48:53,848.8099,860.3247,827.4251,824.13513
2015-11-09 07:48:53,825.78015,850.45483,834.005,827.4251
2015-11-09 07:48:53,840.58496,853.7448,834.005,819.2002
2015-11-09 07:48:53,842.2299,858.67975,834.005,820.8452
2015-11-09 07:48:53,848.8099,853.7448,830.7151,820.8452
2015-11-09 07:48:53,838.94,857.0347,827.4251,815.9103
2015-11-09 07:48:53,843.87494,855.3898,827.4251,832.36005
2015-11-09 07:48:53,840.58496,853.7448,829.07007,822.4902
2015-11-09 07:48:53,845.5199,858.67975,832.36005,824.13513
2015-11-09 07:48:53,840.58496,855.3898,835.65,825.78015
2015-11-09 07:48:53,858.67975,855.3898,843.87494,838.94
2015-11-09 07:48:53,832.36005,860.3247,842.2299,820.8452
2015-11-09 07:48:53,825.78015,861.9697,840.58496,820.8452
2015-11-09 07:48:53,848.8099,866.90466,838.94,830.7151
2015-11-09 07:48:53,850.45483,858.67975,835.65,827.4251
2015-11-09 07:48:53,855.3898,857.0347,834.005,845.5199
2015-11-09 07:48:53,838.94,857.0347,834.005,838.94
2015-11-09 07:48:53,822.4902,855.3898,832.36005,832.36005
2015-11-09 07:48:53,830.7151,858.67975,837.295,832.36005
2015-11-09 07:48:53,834.005,860.3247,834.005,819.2002
2015-11-09 07:48:53,850.45483,853.7448,835.65,837.295
2015-11-09 07:48:53,822.4902,852.0998,834.005,817.55524
2015-11-09 07:48:53,843.87494,857.0347,834.005,824.13513
2015-11-09 07:48:53,842.2299,855.3898,832.36005,834.005
2015-11-09 07:48:53,857.0347,863.6147,829.07007,827.4251
2015-11-09 07:48:53,847.16486,860.3247,830.7151,830.7151
2015-11-09 07:48:53,835.65,853.7448,835.65,825.78015
2015-11-09 07:48:53,832.36005,853.7448,840.58496,832.36005
2015-11-09 07:48:53,847.16486,850.45483,838.94,843.87494
2015-11-09 07:48:53,834.005,858.67975,838.94,848.8099
2015-11-09 07:48:53,840.58496,861.9697,830.7151,838.94
2015-11-09 07:48:53,847.16486,861.9697,834.005,840.58496
2015-11-09 07:48:53,838.94,863.6147,827.4251,832.36005
2015-11-09 07:48:53,847.16486,858.67975,834.005,848.8099
2015-11-09 07:48:53,824.13513,857.0347,840.58496,834.005
2015-11-09 07:48:53,830.7151,857.0347,842.2299,829.07007
2015-11-09 07:48:53,838.94,860.3247,842.2299,838.94
2015-11-09 07:48:53,842.2299,852.0998,835.65,837.295
2015-11-09 07:48:53,847.16486,855.3898,834.005,838.94
2015-11-09 07:48:53,837.295,855.3898,837.295,842.2299
2015-11-09 07:48:53,827.4251,848.8099,835.65,840.58496
2015-11-09 07:48:53,838.94,853.7448,838.94,842.2299
2015-11-09 07:48:53,834.005,855.3898,835.65,837.295
2015-11-09 07:48:53,830.7151,861.9697,832.36005,834.005
2015-11-09 07:48:53,843.87494,855.3898,834.005,829.07007
2015-11-09 07:48:53,848.8099,858.67975,829.07007,837.295
2015-11-09 07:48:53,840.58496,853.7448,830.7151,832.36005
2015-11-09 07:48:53,838.94,858.67975,829.07007,815.9103
2015-11-09 07:48:53,820.8452,860.3247,830.7151,825.78015
2015-11-09 07:48:54,812.6203,852.0998,832.36005,815.9103
2015-11-09 07:48:54,848.8099,855.3898,837.295,838.94
2015-11-09 07:48:54,838.94,853.7448,834.005,829.07007
2015-11-09 07:48:54,855.3898,858.67975,835.65,830.7151
2015-11-09 07:48:54,829.07007,852.0998,838.94,834.005
2015-11-09 07:48:54,837.295,853.7448,827.4251,820.8452
2015-11-09 07:48:54,842.2299,857.0347,832.36005,825.78015
2015-11-09 07:48:54,840.58496,858.67975,835.65,820.8452
2015-11-09 07:48:54,857.0347,861.9697,838.94,825.78015
2015-11-09 07:48:54,843.87494,852.0998,842.2299,827.4251
2015-11-09 07:48:54,845.5199,855.3898,837.295,822.4902
2015-11-09 07:48:54,853.7448,857.0347,834.005,822.4902
2015-11-09 07:48:54,835.65,855.3898,837.295,827.4251
2015-11-09 07:48:54,847.16486,852.0998,837.295,825.78015
2015-11-09 07:48:54,863.6147,850.45483,837.295,825.78015
2015-11-09 07:48:54,840.58496,848.8099,837.295,834.005
2015-11-09 07:48:54,845.5199,857.0347,838.94,817.55524
2015-11-09 07:48:54,835.65,865.25964,835.65,812.6203
2015-11-09 07:48:54,848.8099,865.25964,830.7151,825.78015
2015-11-09 07:48:54,852.0998,868.5496,834.005,820.8452
2015-11-09 07:48:54,845.5199,863.6147,832.36005,820.8452
2015-11-09 07:48:54,847.16486,858.67975,843.87494,825.78015
2015-11-09 07:48:54,838.94,857.0347,837.295,820.8452
2015-11-09 07:48:54,847.16486,855.3898,840.58496,825.78015
2015-11-09 07:48:54,848.8099,853.7448,837.295,832.36005
2015-11-09 07:48:54,842.2299,858.67975,832.36005,840.58496
2015-11-09 07:48:54,848.8099,855.3898,840.58496,825.78015
2015-11-09 07:48:54,835.65,857.0347,838.94,819.2002
2015-11-09 07:48:54,848.8099,853.7448,840.58496,820.8452
2015-11-09 07:48:54,838.94,853.7448,840.58496,809.3303
2015-11-09 07:48:54,847.16486,855.3898,837.295,815.9103
2015-11-09 07:48:54,855.3898,855.3898,835.65,829.07007
2015-11-09 07:48:54,845.5199,860.3247,835.65,824.13513
2015-11-09 07:48:54,857.0347,857.0347,840.58496,829.07007
2015-11-09 07:48:54,853.7448,855.3898,840.58496,825.78015
2015-11-09 07:48:54,853.7448,855.3898,837.295,825.78015
2015-11-09 07:48:54,842.2299,857.0347,840.58496,820.8452
2015-11-09 07:48:54,845.5199,858.67975,835.65,825.78015
2015-11-09 07:48:54,858.67975,858.67975,837.295,840.58496
2015-11-09 07:48:54,858.67975,852.0998,837.295,838.94
2015-11-09 07:48:54,850.45483,848.8099,835.65,834.005
2015-11-09 07:48:54,830.7151,857.0347,835.65,824.13513
2015-11-09 07:48:54,840.58496,860.3247,830.7151,819.2002
2015-11-09 07:48:54,847.16486,860.3247,830.7151,817.55524
2015-11-09 07:48:54,842.2299,861.9697,832.36005,819.2002
2015-11-09 07:48:54,852.0998,855.3898,834.005,812.6203
2015-11-09 07:48:54,842.2299,857.0347,837.295,819.2002
2015-11-09 07:48:54,852.0998,853.7448,834.005,815.9103
2015-11-09 07:48:54,858.67975,855.3898,832.36005,829.07007
2015-11-09 07:48:54,852.0998,858.67975,830.7151,825.78015
2015-11-09 07:48:54,835.65,855.3898,837.295,814.26526
2015-11-09 07:48:54,825.78015,847.16486,835.65,815.9103
2015-11-09 07:48:54,840.58496,848.8099,834.005,822.4902
2015-11-09 07:48:54,840.58496,847.16486,837.295,825.78015
2015-11-09 07:48:54,847.16486,853.7448,834.005,827.4251
2015-11-09 07:48:54,860.3247,857.0347,835.65,830.7151
2015-11-09 07:48:54,860.3247,853.7448,834.005,814.26526
2015-11-09 07:48:54,865.25964,855.3898,832.36005,822.4902
2015-11-09 07:48:54,861.9697,855.3898,829.07007,830.7151
2015-11-09 07:48:54,847.16486,855.3898,829.07007,825.78015
2015-11-09 07:48:54,842.2299,852.0998,829.07007,829.07007
2015-11-09 07:48:54,842.2299,853.7448,830.7151,817.55524
2015-11-09 07:48:54,834.005,857.0347,838.94,817.55524
2015-11-09 07:48:54,817.55524,857.0347,832.36005,819.2002
2015-11-09 07:48:54,827.4251,855.3898,835.65,819.2002
2015-11-09 07:48:54,842.2299,860.3247,832.36005,815.9103
2015-11-09 07:48:54,858.67975,857.0347,829.07007,815.9103
2015-11-09 07:48:54,855.3898,857.0347,834.005,815.9103
2015-11-09 07:48:54,845.5199,855.3898,830.7151,804.3954
2015-11-09 07:48:54,840.58496,855.3898,830.7151,807.68536
2015-11-09 07:48:54,840.58496,853.7448,827.4251,799.46045
2015-11-09 07:48:54,842.2299,853.7448,829.07007,794.5255
2015-11-09 07:48:54,835.65,855.3898,830.7151,801.1054
2015-11-09 07:48:54,835.65,860.3247,830.7151,806.04034
2015-11-09 07:48:54,847.16486,858.67975,829.07007,804.3954
2015-11-09 07:48:54,843.87494,853.7448,829.07007,822.4902
2015-11-09 07:48:54,845.5199,853.7448,829.07007,814.26526
2015-11-09 07:48:54,845.5199,855.3898,829.07007,799.46045
2015-11-09 07:48:54,838.94,852.0998,834.005,799.46045
2015-11-09 07:48:54,840.58496,857.0347,827.4251,802.7504
2015-11-09 07:48:54,842.2299,852.0998,830.7151,804.3954
2015-11-09 07:48:54,837.295,852.0998,829.07007,807.68536
2015-11-09 07:48:54,843.87494,858.67975,825.78015,804.3954
2015-11-09 07:48:54,847.16486,853.7448,825.78015,801.1054
2015-11-09 07:48:54,842.2299,855.3898,824.13513,802.7504
2015-11-09 07:48:54,830.7151,857.0347,829.07007,804.3954
2015-11-09 07:48:54,837.295,858.67975,830.7151,806.04034
2015-11-09 07:48:54,843.87494,860.3247,824.13513,792.88055
2015-11-09 07:48:54,845.5199,860.3247,815.9103,801.1054
2015-11-09 07:48:54,855.3898,860.3247,829.07007,804.3954
2015-11-09 07:48:54,835.65,861.9697,830.7151,787.94556
2015-11-09 07:48:54,837.295,861.9697,829.07007,812.6203
2015-11-09 07:48:54,845.5199,855.3898,830.7151,809.3303
2015-11-09 07:48:54,848.8099,855.3898,824.13513,809.3303
2015-11-09 07:48:54,835.65,857.0347,827.4251,810.9753
2015-11-09 07:48:54,838.94,855.3898,827.4251,801.1054
2015-11-09 07:48:54,840.58496,853.7448,825.78015,817.55524
2015-11-09 07:48:54,842.2299,853.7448,827.4251,817.55524
2015-11-09 07:48:54,853.7448,850.45483,825.78015,825.78015
2015-11-09 07:48:54,845.5199,847.16486,829.07007,809.3303
2015-11-09 07:48:54,842.2299,853.7448,825.78015,819.2002
2015-11-09 07:48:54,850.45483,858.67975,827.4251,825.78015
2015-11-09 07:48:54,850.45483,853.7448,827.4251,822.4902
2015-11-09 07:48:54,837.295,855.3898,830.7151,824.13513
2015-11-09 07:48:54,830.7151,852.0998,837.295,789.5906
2015-11-09 07:48:54,815.9103,855.3898,835.65,768.2058
2015-11-09 07:48:54,837.295,857.0347,827.4251,830.7151
2015-11-09 07:48:54,861.9697,858.67975,829.07007,825.78015
2015-11-09 07:48:54,868.5496,860.3247,817.55524,837.295
2015-11-09 07:48:54,860.3247,855.3898,837.295,806.04034
2015-11-09 07:48:54,838.94,860.3247,830.7151,751.75604
2015-11-09 07:48:54,806.04034,857.0347,830.7151,735.3062
2015-11-09 07:48:54,847.16486,863.6147,809.3303,773.14075
2015-11-09 07:48:54,855.3898,852.0998,832.36005,855.3898
2015-11-09 07:48:54,825.78015,855.3898,837.295,809.3303
2015-11-09 07:48:54,861.9697,855.3898,837.295,832.36005
2015-11-09 07:48:54,840.58496,850.45483,845.5199,786.3006
2015-11-09 07:48:54,834.005,855.3898,832.36005,733.66125
2015-11-09 07:48:54,855.3898,858.67975,822.4902,759.9809
2015-11-09 07:48:54,857.0347,855.3898,825.78015,769.8508
2015-11-09 07:48:54,850.45483,852.0998,834.005,776.4307
2015-11-09 07:48:54,852.0998,853.7448,829.07007,769.8508
2015-11-09 07:48:54,840.58496,852.0998,840.58496,759.9809
2015-11-09 07:48:54,806.04034,843.87494,852.0998,707.34155
2015-11-09 07:48:54,794.5255,843.87494,860.3247,664.5721
2015-11-09 07:48:54,763.2709,845.5199,858.67975,638.2524
2015-11-09 07:48:54,827.4251,843.87494,857.0347,651.41223
2015-11-09 07:48:54,866.90466,866.90466,812.6203,750.111
2015-11-09 07:48:54,883.35443,861.9697,797.8155,796.1705
2015-11-09 07:48:54,830.7151,855.3898,843.87494,743.5311
2015-11-09 07:48:54,751.75604,830.7151,850.45483,690.8917
2015-11-09 07:48:54,751.75604,848.8099,863.6147,638.2524
2015-11-09 07:48:54,751.75604,829.07007,873.48456,664.5721
2015-11-09 07:48:54,804.3954,827.4251,801.1054,743.5311
2015-11-09 07:48:54,857.0347,863.6147,771.4958,743.5311
2015-11-09 07:48:54,725.43634,845.5199,807.68536,690.8917
2015-11-09 07:48:54,830.7151,863.6147,761.6259,743.5311
2015-11-09 07:48:54,804.3954,838.94,827.4251,743.5311
2015-11-09 07:48:54,725.43634,840.58496,820.8452,717.2114
2015-11-09 07:48:54,751.75604,850.45483,853.7448,717.2114
2015-11-09 07:48:54,620.1576,827.4251,883.35443,638.2524
2015-11-09 07:48:54,646.4773,858.67975,791.23553,690.8917
2015-11-09 07:48:54,751.75604,861.9697,824.13513,796.1705
2015-11-09 07:48:54,857.0347,840.58496,810.9753,875.1295
2015-11-09 07:48:54,804.3954,845.5199,801.1054,901.4492
2015-11-09 07:48:54,804.3954,829.07007,863.6147,868.5496
2015-11-09 07:48:54,751.75604,876.77454,807.68536,855.3898
2015-11-09 07:48:54,646.4773,891.57935,807.68536,829.07007
2015-11-09 07:48:54,672.79694,855.3898,820.8452,842.2299
2015-11-09 07:48:54,830.7151,863.6147,781.36566,940.9288
2015-11-09 07:48:54,804.3954,832.36005,807.68536,875.1295
2015-11-09 07:48:54,857.0347,857.0347,801.1054,990.27814
2015-11-09 07:48:54,751.75604,904.7392,807.68536,911.3191
2015-11-09 07:48:54,672.79694,917.89905,778.0757,908.0292
2015-11-09 07:48:54,751.75604,827.4251,834.005,973.82837
2015-11-09 07:48:54,830.7151,855.3898,791.23553,937.6388
2015-11-09 07:48:54,778.0757,873.48456,804.3954,924.47894
2015-11-09 07:48:54,699.11664,865.25964,817.55524,970.5384
2015-11-09 07:48:54,804.3954,875.1295,748.46606,1000.1481
2015-11-09 07:48:54,883.35443,852.0998,810.9753,1029.7577
2015-11-09 07:48:54,804.3954,810.9753,814.26526,1013.30786
2015-11-09 07:48:54,901.4492,875.1295,807.68536,1029.7577
2015-11-09 07:48:54,651.41223,916.254,832.36005,917.89905
2015-11-09 07:48:54,822.4902,814.26526,847.16486,1075.8171
2015-11-09 07:48:54,967.2484,799.46045,868.5496,1036.3376
2015-11-09 07:48:54,927.7689,875.1295,755.04596,1069.2372
2015-11-09 07:48:54,940.9288,858.67975,830.7151,1095.5569
2015-11-09 07:48:54,914.6091,857.0347,819.2002,1029.7577
2015-11-09 07:48:54,914.6091,855.3898,834.005,1056.0774
2015-11-09 07:48:54,914.6091,875.1295,845.5199,1049.4974
2015-11-09 07:48:54,980.40826,873.48456,792.88055,1056.0774
2015-11-09 07:48:54,927.7689,843.87494,842.2299,1023.1778
2015-11-09 07:48:54,954.0886,852.0998,792.88055,1088.9769
2015-11-09 07:48:54,993.5681,792.88055,875.1295,1075.8171
2015-11-09 07:48:54,914.6091,880.06445,817.55524,1042.9175
2015-11-09 07:48:54,901.4492,855.3898,802.7504,1029.7577
2015-11-09 07:48:54,940.9288,857.0347,853.7448,977.11835
2015-11-09 07:48:54,835.65,891.57935,870.1946,898.15924
2015-11-09 07:48:54,914.6091,873.48456,855.3898,1029.7577
2015-11-09 07:48:54,967.2484,860.3247,769.8508,1108.7168
2015-11-09 07:48:54,967.2484,820.8452,827.4251,1056.0774
2015-11-09 07:48:54,1046.2075,847.16486,815.9103,1056.0774
2015-11-09 07:48:54,940.9288,857.0347,855.3898,1029.7577
2015-11-09 07:48:54,940.9288,881.7095,840.58496,977.11835
2015-11-09 07:48:54,940.9288,847.16486,797.8155,1108.7168
2015-11-09 07:48:54,940.9288,860.3247,847.16486,1056.0774
2015-11-09 07:48:54,1019.8878,855.3898,848.8099,1056.0774
2015-11-09 07:48:54,993.5681,847.16486,860.3247,1029.7577
2015-11-09 07:48:54,1046.2075,830.7151,814.26526,1082.3971
2015-11-09 07:48:54,940.9288,873.48456,824.13513,1056.0774
2015-11-09 07:48:54,940.9288,857.0347,819.2002,1029.7577
2015-11-09 07:48:54,993.5681,861.9697,852.0998,1082.3971
2015-11-09 07:48:54,993.5681,832.36005,845.5199,1056.0774
2015-11-09 07:48:54,1046.2075,848.8099,787.94556,1108.7168
2015-11-09 07:48:54,934.3488,865.25964,866.90466,977.11835
2015-11-09 07:48:54,937.6388,861.9697,820.8452,1016.59784
2015-11-09 07:48:54,944.2187,889.9344,814.26526,1069.2372
2015-11-09 07:48:54,970.5384,843.87494,873.48456,1042.9175
2015-11-09 07:48:54,1042.9175,852.0998,847.16486,1082.3971
2015-11-09 07:48:54,947.50867,847.16486,847.16486,990.27814
2015-11-09 07:48:54,1042.9175,829.07007,807.68536,1056.0774
2015-11-09 07:48:54,934.3488,901.4492,820.8452,1082.3971
2015-11-09 07:48:54,944.2187,852.0998,853.7448,1042.9175
2015-11-09 07:48:54,970.5384,873.48456,787.94556,1148.1963
2015-11-09 07:48:54,1010.01794,824.13513,860.3247,1095.5569
2015-11-09 07:48:54,1039.6276,860.3247,794.5255,1095.5569
2015-11-09 07:48:54,954.0886,853.7448,827.4251,1069.2372
2015-11-09 07:48:54,917.89905,863.6147,827.4251,963.9585
2015-11-09 07:48:54,940.9288,840.58496,814.26526,1174.516
2015-11-09 07:48:54,940.9288,832.36005,814.26526,1108.7168
2015-11-09 07:48:55,967.2484,871.8396,834.005,1108.7168
2015-11-09 07:48:55,914.6091,871.8396,840.58496,1029.7577
2015-11-09 07:48:55,940.9288,832.36005,801.1054,1029.7577
2015-11-09 07:48:55,940.9288,792.88055,840.58496,1082.3971
2015-11-09 07:48:55,967.2484,845.5199,781.36566,1082.3971
2015-11-09 07:48:55,888.28937,832.36005,847.16486,1056.0774
2015-11-09 07:48:55,967.2484,871.8396,801.1054,1108.7168
2015-11-09 07:48:55,888.28937,871.8396,801.1054,1056.0774
2015-11-09 07:48:55,914.6091,779.7207,853.7448,1082.3971
2015-11-09 07:48:55,1019.8878,871.8396,755.04596,1161.3561
2015-11-09 07:48:55,914.6091,845.5199,827.4251,1003.438
2015-11-09 07:48:55,993.5681,819.2002,847.16486,1108.7168
2015-11-09 07:48:55,914.6091,858.67975,834.005,1029.7577
2015-11-09 07:48:55,914.6091,819.2002,814.26526,1056.0774
2015-11-09 07:48:55,993.5681,858.67975,768.2058,1161.3561
2015-11-09 07:48:55,940.9288,858.67975,787.94556,1056.0774
2015-11-09 07:48:55,921.18896,830.7151,834.005,960.6685
2015-11-09 07:48:55,852.0998,837.295,873.48456,934.3488
2015-11-09 07:48:55,927.7689,837.295,801.1054,1033.0476
2015-11-09 07:48:55,970.5384,820.8452,834.005,1026.4678
2015-11-09 07:48:55,908.0292,822.4902,801.1054,1039.6276
2015-11-09 07:48:55,954.0886,825.78015,814.26526,1065.9473
2015-11-09 07:48:55,947.50867,834.005,807.68536,1026.4678
2015-11-09 07:48:55,927.7689,865.25964,781.36566,1033.0476
2015-11-09 07:48:55,954.0886,774.78577,866.90466,963.9585
2015-11-09 07:48:55,950.79865,825.78015,807.68536,1006.72797
2015-11-09 07:48:55,960.6685,824.13513,820.8452,1059.3673
2015-11-09 07:48:55,921.18896,845.5199,834.005,963.9585
2015-11-09 07:48:55,894.8693,860.3247,794.5255,950.79865
2015-11-09 07:48:55,954.0886,824.13513,834.005,1039.6276
2015-11-09 07:48:55,970.5384,822.4902,820.8452,1039.6276
2015-11-09 07:48:55,986.9882,801.1054,814.26526,1069.2372
2015-11-09 07:48:55,965.60345,848.8099,791.23553,1042.9175
2015-11-09 07:48:55,952.4436,832.36005,815.9103,1003.438
2015-11-09 07:48:55,845.5199,866.90466,799.46045,950.79865
2015-11-09 07:48:55,982.0533,809.3303,837.295,1069.2372
2015-11-09 07:48:55,939.28375,802.7504,871.8396,990.27814
2015-11-09 07:48:55,935.99384,847.16486,771.4958,990.27814
2015-11-09 07:48:55,1033.0476,812.6203,774.78577,1200.8357
2015-11-09 07:48:55,909.67413,838.94,829.07007,1029.7577
2015-11-09 07:48:55,911.3191,832.36005,837.295,1016.59784
2015-11-09 07:48:55,908.0292,835.65,815.9103,1016.59784
2015-11-09 07:48:55,917.89905,840.58496,814.26526,1095.5569
2015-11-09 07:48:55,962.3135,814.26526,822.4902,1121.8766
2015-11-09 07:48:55,921.18896,822.4902,832.36005,1042.9175
2015-11-09 07:48:55,934.3488,810.9753,852.0998,1082.3971
2015-11-09 07:48:55,940.9288,863.6147,786.3006,1082.3971
2015-11-09 07:48:55,957.37854,852.0998,784.65564,1095.5569
2015-11-09 07:48:55,954.0886,822.4902,807.68536,1108.7168
2015-11-09 07:48:55,955.7336,804.3954,834.005,1082.3971
2015-11-09 07:48:55,931.0589,830.7151,804.3954,1059.3673
2015-11-09 07:48:55,903.09424,827.4251,820.8452,1059.3673
2015-11-09 07:48:55,891.57935,857.0347,814.26526,1065.9473
2015-11-09 07:48:55,949.1537,830.7151,804.3954,1082.3971
2015-11-09 07:48:55,950.79865,825.78015,830.7151,1042.9175
2015-11-09 07:48:55,959.02356,814.26526,797.8155,1095.5569
2015-11-09 07:48:55,955.7336,824.13513,827.4251,1069.2372
2015-11-09 07:48:55,904.7392,825.78015,820.8452,986.9882
2015-11-09 07:48:55,957.37854,845.5199,794.5255,1105.4268
2015-11-09 07:48:55,959.02356,820.8452,824.13513,1072.5272
2015-11-09 07:48:55,942.5737,817.55524,814.26526,1049.4974
2015-11-09 07:48:55,916.254,825.78015,814.26526,1039.6276
2015-11-09 07:48:55,863.6147,829.07007,847.16486,983.69824
2015-11-09 07:48:55,917.89905,837.295,807.68536,1062.6573
2015-11-09 07:48:55,945.8637,825.78015,806.04034,1090.622
2015-11-09 07:48:55,942.5737,834.005,822.4902,1079.107
2015-11-09 07:48:55,939.28375,825.78015,801.1054,1085.687
2015-11-09 07:48:55,903.09424,838.94,820.8452,1023.1778
2015-11-09 07:48:55,906.38416,827.4251,835.65,1036.3376
2015-11-09 07:48:55,935.99384,827.4251,801.1054,1088.9769
2015-11-09 07:48:55,911.3191,829.07007,830.7151,1077.4622
2015-11-09 07:48:55,912.9641,829.07007,820.8452,1061.0123
2015-11-09 07:48:55,916.254,835.65,824.13513,1070.8822
2015-11-09 07:48:55,911.3191,830.7151,830.7151,1061.0123
2015-11-09 07:48:55,912.9641,835.65,825.78015,1057.7224
2015-11-09 07:48:55,908.0292,837.295,824.13513,1054.4324
2015-11-09 07:48:55,903.09424,837.295,822.4902,1056.0774
2015-11-09 07:48:55,903.09424,835.65,824.13513,1046.2075
2015-11-09 07:48:55,916.254,848.8099,822.4902,1041.2726
2015-11-09 07:48:55,898.15924,847.16486,820.8452,1036.3376
2015-11-09 07:48:55,835.65,876.77454,837.295,812.6203
2015-11-09 07:48:55,842.2299,873.48456,838.94,815.9103
2015-11-09 07:48:55,832.36005,863.6147,852.0998,824.13513
2015-11-09 07:48:55,840.58496,873.48456,845.5199,845.5199
2015-11-09 07:48:55,842.2299,873.48456,852.0998,837.295
2015-11-09 07:48:55,812.6203,878.4195,843.87494,834.005
2015-11-09 07:48:55,832.36005,865.25964,847.16486,845.5199
2015-11-09 07:48:55,832.36005,871.8396,847.16486,832.36005
2015-11-09 07:48:55,835.65,870.1946,845.5199,832.36005
2015-11-09 07:48:55,843.87494,865.25964,847.16486,837.295
2015-11-09 07:48:55,827.4251,875.1295,845.5199,827.4251
2015-11-09 07:48:55,843.87494,863.6147,857.0347,853.7448
2015-11-09 07:48:55,834.005,866.90466,852.0998,850.45483
2015-11-09 07:48:55,830.7151,865.25964,853.7448,838.94
2015-11-09 07:48:55,812.6203,865.25964,850.45483,837.295
2015-11-09 07:48:55,807.68536,865.25964,852.0998,838.94
2015-11-09 07:48:55,802.7504,870.1946,845.5199,822.4902
2015-11-09 07:48:55,827.4251,873.48456,843.87494,837.295
2015-11-09 07:48:55,812.6203,870.1946,845.5199,825.78015
2015-11-09 07:48:55,807.68536,866.90466,847.16486,822.4902
2015-11-09 07:48:55,812.6203,863.6147,861.9697,829.07007
2015-11-09 07:48:55,799.46045,870.1946,847.16486,837.295
2015-11-09 07:48:55,815.9103,870.1946,843.87494,835.65
2015-11-09 07:48:55,812.6203,870.1946,843.87494,843.87494
2015-11-09 07:48:55,817.55524,873.48456,843.87494,852.0998
2015-11-09 07:48:55,807.68536,866.90466,852.0998,840.58496
2015-11-09 07:48:55,809.3303,866.90466,850.45483,830.7151
2015-11-09 07:48:55,822.4902,860.3247,845.5199,842.2299
2015-11-09 07:48:55,814.26526,860.3247,843.87494,830.7151
2015-11-09 07:48:55,815.9103,863.6147,843.87494,822.4902
2015-11-09 07:48:55,820.8452,858.67975,847.16486,830.7151
2015-11-09 07:48:55,807.68536,855.3898,843.87494,829.07007
2015-11-09 07:48:55,804.3954,855.3898,843.87494,825.78015
2015-11-09 07:48:55,819.2002,863.6147,842.2299,815.9103
2015-11-09 07:48:55,824.13513,861.9697,842.2299,822.4902
2015-11-09 07:48:55,810.9753,858.67975,842.2299,810.9753
2015-11-09 07:48:55,814.26526,857.0347,848.8099,817.55524
2015-11-09 07:48:55,796.1705,855.3898,843.87494,812.6203
2015-11-09 07:48:55,789.5906,858.67975,843.87494,809.3303
2015-11-09 07:48:55,787.94556,850.45483,848.8099,810.9753
2015-11-09 07:48:55,810.9753,853.7448,842.2299,815.9103
2015-11-09 07:48:55,801.1054,853.7448,843.87494,819.2002
2015-11-09 07:48:55,791.23553,858.67975,838.94,801.1054
2015-11-09 07:48:55,781.36566,853.7448,840.58496,809.3303
2015-11-09 07:48:55,799.46045,850.45483,842.2299,810.9753
2015-11-09 07:48:55,812.6203,853.7448,842.2299,829.07007
2015-11-09 07:48:55,792.88055,852.0998,840.58496,812.6203
2015-11-09 07:48:55,776.4307,861.9697,842.2299,796.1705
2015-11-09 07:48:55,768.2058,858.67975,845.5199,786.3006
2015-11-09 07:48:55,801.1054,847.16486,845.5199,797.8155
2015-11-09 07:48:55,842.2299,865.25964,834.005,804.3954
2015-11-09 07:48:55,810.9753,860.3247,835.65,794.5255
2015-11-09 07:48:55,801.1054,857.0347,835.65,786.3006
2015-11-09 07:48:55,786.3006,857.0347,837.295,773.14075
2015-11-09 07:48:55,796.1705,848.8099,843.87494,783.0106
2015-11-09 07:48:55,804.3954,857.0347,838.94,779.7207
2015-11-09 07:48:55,807.68536,860.3247,838.94,779.7207
2015-11-09 07:48:55,792.88055,858.67975,838.94,776.4307
2015-11-09 07:48:55,792.88055,855.3898,838.94,773.14075
2015-11-09 07:48:55,787.94556,853.7448,835.65,771.4958
2015-11-09 07:48:55,784.65564,858.67975,835.65,769.8508
2015-11-09 07:48:55,786.3006,847.16486,848.8099,781.36566
2015-11-09 07:48:55,786.3006,847.16486,843.87494,776.4307
2015-11-09 07:48:55,792.88055,852.0998,848.8099,791.23553
2015-11-09 07:48:55,802.7504,847.16486,843.87494,802.7504
2015-11-09 07:48:55,815.9103,855.3898,834.005,797.8155
2015-11-09 07:48:55,812.6203,848.8099,843.87494,787.94556
2015-11-09 07:48:55,827.4251,853.7448,838.94,802.7504
2015-11-09 07:48:55,827.4251,860.3247,835.65,806.04034
2015-11-09 07:48:55,834.005,861.9697,832.36005,810.9753
2015-11-09 07:48:55,845.5199,858.67975,834.005,815.9103
2015-11-09 07:48:55,843.87494,855.3898,837.295,806.04034
2015-11-09 07:48:55,847.16486,861.9697,837.295,810.9753
2015-11-09 07:48:55,861.9697,858.67975,842.2299,832.36005
2015-11-09 07:48:55,865.25964,861.9697,838.94,840.58496
2015-11-09 07:48:55,866.90466,861.9697,840.58496,832.36005
2015-11-09 07:48:55,868.5496,861.9697,838.94,819.2002
2015-11-09 07:48:55,871.8396,863.6147,838.94,825.78015
2015-11-09 07:48:55,873.48456,861.9697,845.5199,822.4902
2015-11-09 07:48:55,880.06445,860.3247,852.0998,830.7151
2015-11-09 07:48:55,863.6147,858.67975,845.5199,835.65
2015-11-09 07:48:55,860.3247,858.67975,845.5199,822.4902
2015-11-09 07:48:55,863.6147,857.0347,845.5199,837.295
2015-11-09 07:48:55,863.6147,858.67975,847.16486,837.295
2015-11-09 07:48:55,873.48456,857.0347,850.45483,843.87494
2015-11-09 07:48:55,861.9697,861.9697,843.87494,835.65
2015-11-09 07:48:55,863.6147,860.3247,850.45483,838.94
2015-11-09 07:48:55,842.2299,855.3898,847.16486,827.4251
2015-11-09 07:48:55,853.7448,855.3898,848.8099,834.005
2015-11-09 07:48:55,853.7448,855.3898,843.87494,829.07007
2015-11-09 07:48:55,845.5199,857.0347,840.58496,815.9103
2015-11-09 07:48:55,857.0347,863.6147,847.16486,830.7151
2015-11-09 07:48:55,838.94,858.67975,843.87494,819.2002
2015-11-09 07:48:55,837.295,857.0347,847.16486,820.8452
2015-11-09 07:48:55,829.07007,857.0347,837.295,807.68536
2015-11-09 07:48:55,835.65,853.7448,837.295,807.68536
2015-11-09 07:48:55,830.7151,858.67975,838.94,810.9753
2015-11-09 07:48:55,847.16486,861.9697,837.295,810.9753
2015-11-09 07:48:55,848.8099,853.7448,845.5199,827.4251
2015-11-09 07:48:55,838.94,858.67975,835.65,820.8452
2015-11-09 07:48:55,845.5199,855.3898,842.2299,825.78015
2015-11-09 07:48:55,827.4251,850.45483,840.58496,814.26526
2015-11-09 07:48:55,835.65,855.3898,842.2299,817.55524
2015-11-09 07:48:55,829.07007,845.5199,842.2299,817.55524
2015-11-09 07:48:55,825.78015,850.45483,842.2299,819.2002
2015-11-09 07:48:55,835.65,852.0998,843.87494,827.4251
2015-11-09 07:48:55,819.2002,853.7448,838.94,819.2002
2015-11-09 07:48:55,820.8452,857.0347,842.2299,822.4902
2015-11-09 07:48:55,799.46045,848.8099,837.295,804.3954
2015-11-09 07:48:55,804.3954,848.8099,837.295,815.9103
2015-11-09 07:48:55,801.1054,848.8099,834.005,806.04034
2015-11-09 07:48:55,804.3954,852.0998,830.7151,799.46045
2015-11-09 07:48:55,815.9103,847.16486,837.295,812.6203
2015-11-09 07:48:55,812.6203,843.87494,842.2299,817.55524
2015-11-09 07:48:55,812.6203,847.16486,838.94,806.04034
2015-11-09 07:48:55,822.4902,850.45483,832.36005,804.3954
2015-11-09 07:48:55,819.2002,853.7448,834.005,814.26526
2015-11-09 07:48:55,817.55524,853.7448,837.295,817.55524
2015-11-09 07:48:55,824.13513,850.45483,840.58496,812.6203
2015-11-09 07:48:55,822.4902,853.7448,838.94,809.3303
2015-11-09 07:48:55,820.8452,850.45483,834.005,809.3303
2015-11-09 07:48:55,830.7151,852.0998,834.005,810.9753
2015-11-09 07:48:55,835.65,850.45483,838.94,832.36005
2015-11-09 07:48:55,824.13513,853.7448,835.65,809.3303
2015-11-09 07:48:55,832.36005,853.7448,838.94,812.6203
2015-11-09 07:48:55,819.2002,848.8099,838.94,812.6203
2015-11-09 07:48:55,842.2299,847.16486,842.2299,822.4902
2015-11-09 07:48:55,830.7151,848.8099,835.65,825.78015
2015-11-09 07:48:55,835.65,847.16486,840.58496,824.13513
2015-11-09 07:48:55,824.13513,852.0998,834.005,820.8452
2015-11-09 07:48:55,830.7151,857.0347,840.58496,829.07007
2015-11-09 07:48:55,830.7151,850.45483,837.295,817.55524
2015-11-09 07:48:55,832.36005,852.0998,837.295,812.6203
2015-11-09 07:48:55,840.58496,852.0998,837.295,817.55524
2015-11-09 07:48:55,842.2299,847.16486,834.005,809.3303
2015-11-09 07:48:55,832.36005,845.5199,837.295,817.55524
2015-11-09 07:48:55,832.36005,847.16486,834.005,802.7504
2015-11-09 07:48:55,824.13513,850.45483,835.65,810.9753
2015-11-09 07:48:55,825.78015,858.67975,838.94,812.6203
2015-11-09 07:48:55,834.005,860.3247,838.94,817.55524
2015-11-09 07:48:55,835.65,857.0347,837.295,815.9103
2015-11-09 07:48:55,825.78015,848.8099,837.295,809.3303
2015-11-09 07:48:55,827.4251,848.8099,837.295,809.3303
2015-11-09 07:48:55,842.2299,853.7448,838.94,825.78015
2015-11-09 07:48:55,837.295,858.67975,840.58496,825.78015
2015-11-09 07:48:55,834.005,857.0347,837.295,827.4251
2015-11-09 07:48:55,838.94,860.3247,830.7151,810.9753
2015-11-09 07:48:55,840.58496,857.0347,832.36005,810.9753
2015-11-09 07:48:55,838.94,855.3898,840.58496,819.2002
2015-11-09 07:48:55,838.94,857.0347,842.2299,824.13513
2015-11-09 07:48:55,832.36005,855.3898,842.2299,824.13513
2015-11-09 07:48:55,820.8452,852.0998,837.295,815.9103
2015-11-09 07:48:55,824.13513,852.0998,832.36005,819.2002
2015-11-09 07:48:55,845.5199,852.0998,835.65,815.9103
2015-11-09 07:48:55,842.2299,853.7448,837.295,817.55524
2015-11-09 07:48:55,838.94,853.7448,837.295,819.2002
2015-11-09 07:48:55,837.295,850.45483,840.58496,817.55524
2015-11-09 07:48:55,827.4251,848.8099,838.94,817.55524
2015-11-09 07:48:55,834.005,850.45483,840.58496,819.2002
2015-11-09 07:48:55,825.78015,848.8099,835.65,809.3303
2015-11-09 07:48:55,829.07007,850.45483,838.94,814.26526
2015-11-09 07:48:55,830.7151,848.8099,837.295,817.55524
2015-11-09 07:48:56,832.36005,850.45483,840.58496,815.9103
2015-11-09 07:48:56,827.4251,848.8099,842.2299,822.4902
2015-11-09 07:48:56,824.13513,848.8099,840.58496,807.68536
2015-11-09 07:48:56,825.78015,848.8099,840.58496,817.55524
2015-11-09 07:48:56,829.07007,852.0998,837.295,807.68536
2015-11-09 07:48:56,827.4251,853.7448,838.94,806.04034
2015-11-09 07:48:56,827.4251,850.45483,837.295,807.68536
2015-11-09 07:48:56,832.36005,850.45483,835.65,809.3303
2015-11-09 07:48:56,842.2299,853.7448,837.295,817.55524
2015-11-09 07:48:56,837.295,855.3898,830.7151,809.3303
2015-11-09 07:48:56,829.07007,857.0347,834.005,802.7504
2015-11-09 07:48:56,848.8099,858.67975,835.65,807.68536
2015-11-09 07:48:56,843.87494,852.0998,840.58496,817.55524
2015-11-09 07:48:56,837.295,853.7448,842.2299,825.78015
2015-11-09 07:48:56,837.295,853.7448,840.58496,817.55524
2015-11-09 07:48:56,829.07007,855.3898,842.2299,817.55524
2015-11-09 07:48:56,830.7151,853.7448,840.58496,814.26526
2015-11-09 07:48:56,834.005,852.0998,843.87494,812.6203
2015-11-09 07:48:56,822.4902,853.7448,842.2299,814.26526
2015-11-09 07:48:56,817.55524,850.45483,838.94,812.6203
2015-11-09 07:48:56,814.26526,855.3898,840.58496,812.6203
2015-11-09 07:48:56,815.9103,853.7448,837.295,810.9753
2015-11-09 07:48:56,817.55524,850.45483,840.58496,799.46045
2015-11-09 07:48:56,819.2002,853.7448,840.58496,794.5255
2015-11-09 07:48:56,820.8452,853.7448,838.94,789.5906
2015-11-09 07:48:56,817.55524,853.7448,837.295,786.3006
2015-11-09 07:48:56,809.3303,848.8099,835.65,784.65564
2015-11-09 07:48:56,814.26526,848.8099,832.36005,776.4307
2015-11-09 07:48:56,820.8452,848.8099,834.005,774.78577
2015-11-09 07:48:56,819.2002,852.0998,832.36005,773.14075
2015-11-09 07:48:56,832.36005,852.0998,837.295,773.14075
2015-11-09 07:48:56,819.2002,848.8099,838.94,778.0757
2015-11-09 07:48:56,827.4251,857.0347,840.58496,786.3006
2015-11-09 07:48:56,832.36005,857.0347,838.94,792.88055
2015-11-09 07:48:56,829.07007,861.9697,835.65,791.23553
2015-11-09 07:48:56,832.36005,861.9697,838.94,789.5906
2015-11-09 07:48:56,829.07007,857.0347,837.295,783.0106
2015-11-09 07:48:56,825.78015,852.0998,837.295,787.94556
2015-11-09 07:48:56,820.8452,853.7448,835.65,779.7207
2015-11-09 07:48:56,832.36005,855.3898,837.295,776.4307
2015-11-09 07:48:56,845.5199,857.0347,837.295,781.36566
2015-11-09 07:48:56,837.295,855.3898,840.58496,773.14075
2015-11-09 07:48:56,837.295,857.0347,838.94,774.78577
2015-11-09 07:48:56,838.94,853.7448,843.87494,779.7207
2015-11-09 07:48:56,829.07007,853.7448,842.2299,776.4307
2015-11-09 07:48:56,834.005,852.0998,842.2299,773.14075
2015-11-09 07:48:56,832.36005,850.45483,843.87494,779.7207
2015-11-09 07:48:56,825.78015,852.0998,837.295,774.78577
2015-11-09 07:48:56,825.78015,848.8099,840.58496,771.4958
2015-11-09 07:48:56,824.13513,852.0998,840.58496,771.4958
2015-11-09 07:48:56,825.78015,852.0998,842.2299,761.6259
2015-11-09 07:48:56,820.8452,850.45483,845.5199,764.91583
2015-11-09 07:48:56,820.8452,850.45483,843.87494,774.78577
2015-11-09 07:48:56,820.8452,852.0998,843.87494,768.2058
2015-11-09 07:48:56,825.78015,855.3898,837.295,761.6259
2015-11-09 07:48:56,834.005,855.3898,840.58496,759.9809
2015-11-09 07:48:56,832.36005,858.67975,834.005,758.33594
2015-11-09 07:48:56,832.36005,857.0347,830.7151,759.9809
2015-11-09 07:48:56,829.07007,857.0347,834.005,759.9809
2015-11-09 07:48:56,832.36005,858.67975,830.7151,759.9809
2015-11-09 07:48:56,842.2299,860.3247,837.295,761.6259
2015-11-09 07:48:56,829.07007,855.3898,834.005,769.8508
2015-11-09 07:48:56,830.7151,855.3898,834.005,768.2058
2015-11-09 07:48:56,834.005,857.0347,835.65,773.14075
2015-11-09 07:48:56,830.7151,853.7448,838.94,783.0106
2015-11-09 07:48:56,838.94,858.67975,838.94,783.0106
2015-11-09 07:48:56,835.65,857.0347,838.94,781.36566
2015-11-09 07:48:56,829.07007,857.0347,837.295,779.7207
2015-11-09 07:48:56,827.4251,858.67975,837.295,776.4307
2015-11-09 07:48:56,835.65,858.67975,834.005,776.4307
2015-11-09 07:48:56,830.7151,855.3898,834.005,771.4958
2015-11-09 07:48:56,838.94,860.3247,834.005,774.78577
2015-11-09 07:48:56,829.07007,858.67975,834.005,776.4307
2015-11-09 07:48:56,822.4902,853.7448,837.295,784.65564
2015-11-09 07:48:56,830.7151,858.67975,835.65,787.94556
2015-11-09 07:48:56,832.36005,858.67975,835.65,781.36566
2015-11-09 07:48:56,838.94,860.3247,834.005,779.7207
2015-11-09 07:48:56,838.94,861.9697,835.65,778.0757
2015-11-09 07:48:56,834.005,858.67975,830.7151,776.4307
2015-11-09 07:48:56,824.13513,861.9697,832.36005,766.56085
2015-11-09 07:48:56,822.4902,865.25964,837.295,779.7207
2015-11-09 07:48:56,820.8452,871.8396,838.94,783.0106
2015-11-09 07:48:56,814.26526,878.4195,838.94,781.36566
2015-11-09 07:48:56,829.07007,899.80426,834.005,786.3006
2015-11-09 07:48:56,834.005,922.834,835.65,789.5906
2015-11-09 07:48:56,834.005,950.79865,832.36005,789.5906
2015-11-09 07:48:56,832.36005,985.3432,837.295,787.94556
2015-11-09 07:48:56,834.005,1023.1778,835.65,786.3006
2015-11-09 07:48:56,835.65,1080.7521,835.65,778.0757
2015-11-09 07:48:56,832.36005,1164.6461,837.295,787.94556
2015-11-09 07:48:56,834.005,1311.0493,834.005,792.88055
2015-11-09 07:48:56,830.7151,1399.8783,835.65,789.5906
2015-11-09 07:48:56,829.07007,1436.0679,832.36005,787.94556
2015-11-09 07:48:56,827.4251,1450.8727,830.7151,792.88055
2015-11-09 07:48:56,834.005,1432.7778,832.36005,794.5255
2015-11-09 07:48:56,832.36005,1439.3578,834.005,794.5255
2015-11-09 07:48:56,827.4251,1442.6477,835.65,797.8155
2015-11-09 07:48:57,822.4902,1419.618,835.65,787.94556
2015-11-09 07:48:57,824.13513,1406.4583,834.005,797.8155
2015-11-09 07:48:57,827.4251,1406.4583,834.005,796.1705
2015-11-09 07:48:57,825.78015,1393.2983,837.295,801.1054
2015-11-09 07:48:57,825.78015,1376.8485,835.65,801.1054
2015-11-09 07:48:57,829.07007,1363.6887,835.65,797.8155
2015-11-09 07:48:57,832.36005,1357.1088,832.36005,794.5255
2015-11-09 07:48:57,834.005,1342.304,837.295,794.5255
2015-11-09 07:48:57,829.07007,1327.4991,838.94,801.1054
2015-11-09 07:48:57,820.8452,1315.9843,840.58496,796.1705
2015-11-09 07:48:57,829.07007,1306.1144,838.94,792.88055
2015-11-09 07:48:57,834.005,1296.2445,837.295,791.23553
2015-11-09 07:48:57,832.36005,1286.3746,838.94,791.23553
2015-11-09 07:48:57,835.65,1271.5698,837.295,796.1705
2015-11-09 07:48:57,825.78015,1255.12,832.36005,792.88055
2015-11-09 07:48:57,830.7151,1245.2501,835.65,789.5906
2015-11-09 07:48:57,838.94,1232.0903,838.94,791.23553
2015-11-09 07:48:57,835.65,1223.8654,838.94,804.3954
2015-11-09 07:48:57,834.005,1217.2854,832.36005,792.88055
2015-11-09 07:48:57,834.005,1202.4806,834.005,792.88055
2015-11-09 07:48:57,825.78015,1192.6107,832.36005,799.46045
2015-11-09 07:48:57,824.13513,1189.3208,830.7151,791.23553
2015-11-09 07:48:57,830.7151,1176.1609,830.7151,809.3303
2015-11-09 07:48:57,832.36005,1166.291,829.07007,806.04034
2015-11-09 07:48:57,822.4902,1158.0662,829.07007,792.88055
2015-11-09 07:48:57,817.55524,1146.5513,834.005,792.88055
2015-11-09 07:48:57,817.55524,1141.6163,830.7151,792.88055
2015-11-09 07:48:57,817.55524,1133.3915,829.07007,797.8155
2015-11-09 07:48:57,827.4251,1125.1665,834.005,812.6203
2015-11-09 07:48:57,837.295,1118.5867,835.65,809.3303
2015-11-09 07:48:57,827.4251,1105.4268,834.005,807.68536
2015-11-09 07:48:57,820.8452,1098.8469,830.7151,799.46045
2015-11-09 07:48:57,819.2002,1090.622,832.36005,796.1705
2015-11-09 07:48:57,807.68536,1082.3971,832.36005,799.46045
2015-11-09 07:48:57,812.6203,1075.8171,830.7151,797.8155
2015-11-09 07:48:57,817.55524,1072.5272,830.7151,801.1054
2015-11-09 07:48:57,819.2002,1065.9473,830.7151,802.7504
2015-11-09 07:48:57,822.4902,1061.0123,832.36005,796.1705
2015-11-09 07:48:57,824.13513,1054.4324,829.07007,794.5255
2015-11-09 07:48:57,830.7151,1052.7875,827.4251,804.3954
2015-11-09 07:48:57,830.7151,1049.4974,827.4251,802.7504
2015-11-09 07:48:57,827.4251,1042.9175,829.07007,804.3954
2015-11-09 07:48:57,829.07007,1037.9825,835.65,804.3954
2015-11-09 07:48:57,829.07007,1029.7577,834.005,802.7504
2015-11-09 07:48:57,824.13513,1028.1127,830.7151,804.3954
2015-11-09 07:48:57,820.8452,1023.1778,832.36005,804.3954
2015-11-09 07:48:57,829.07007,1023.1778,834.005,797.8155
2015-11-09 07:48:57,827.4251,1018.24286,834.005,794.5255
2015-11-09 07:48:57,824.13513,1011.6629,837.295,806.04034
2015-11-09 07:48:57,830.7151,1008.3729,835.65,812.6203
2015-11-09 07:48:57,827.4251,1001.793,838.94,817.55524
2015-11-09 07:48:57,825.78015,996.8581,835.65,812.6203
2015-11-09 07:48:57,825.78015,995.21313,837.295,815.9103
2015-11-09 07:48:57,824.13513,991.92316,837.295,810.9753
2015-11-09 07:48:57,825.78015,988.6332,837.295,810.9753
2015-11-09 07:48:57,827.4251,988.6332,838.94,812.6203
2015-11-09 07:48:57,830.7151,986.9882,835.65,802.7504
2015-11-09 07:48:57,829.07007,982.0533,837.295,802.7504
2015-11-09 07:48:57,815.9103,975.4733,834.005,804.3954
2015-11-09 07:48:57,820.8452,972.1834,835.65,802.7504
2015-11-09 07:48:57,824.13513,970.5384,834.005,801.1054
2015-11-09 07:48:57,819.2002,968.89343,832.36005,801.1054
2015-11-09 07:48:57,824.13513,967.2484,832.36005,799.46045
2015-11-09 07:48:57,822.4902,965.60345,834.005,797.8155
2015-11-09 07:48:57,820.8452,962.3135,834.005,794.5255
2015-11-09 07:48:57,819.2002,960.6685,832.36005,797.8155
2015-11-09 07:48:57,814.26526,955.7336,834.005,799.46045
2015-11-09 07:48:57,817.55524,952.4436,830.7151,792.88055
2015-11-09 07:48:57,820.8452,954.0886,827.4251,794.5255
2015-11-09 07:48:57,820.8452,949.1537,832.36005,796.1705
2015-11-09 07:48:57,820.8452,947.50867,832.36005,797.8155
2015-11-09 07:48:57,819.2002,945.8637,834.005,797.8155
2015-11-09 07:48:57,815.9103,944.2187,835.65,804.3954
2015-11-09 07:48:57,820.8452,944.2187,835.65,806.04034
2015-11-09 07:48:57,817.55524,939.28375,834.005,807.68536
2015-11-09 07:48:57,820.8452,939.28375,837.295,810.9753
2015-11-09 07:48:57,820.8452,939.28375,837.295,799.46045
2015-11-09 07:48:57,817.55524,939.28375,835.65,796.1705
2015-11-09 07:48:57,822.4902,939.28375,837.295,810.9753
2015-11-09 07:48:57,822.4902,932.70386,835.65,807.68536
2015-11-09 07:48:57,822.4902,929.4139,835.65,806.04034
2015-11-09 07:48:57,822.4902,932.70386,837.295,807.68536
2015-11-09 07:48:57,830.7151,934.3488,842.2299,809.3303
2015-11-09 07:48:57,830.7151,929.4139,837.295,809.3303
2015-11-09 07:48:57,832.36005,929.4139,838.94,802.7504
2015-11-09 07:48:57,830.7151,927.7689,837.295,807.68536
2015-11-09 07:48:57,827.4251,922.834,837.295,794.5255
2015-11-09 07:48:57,830.7151,927.7689,837.295,797.8155
2015-11-09 07:48:57,835.65,924.47894,834.005,794.5255
2015-11-09 07:48:57,834.005,922.834,835.65,794.5255
2015-11-09 07:48:57,829.07007,924.47894,837.295,804.3954
2015-11-09 07:48:57,830.7151,921.18896,838.94,802.7504
2015-11-09 07:48:57,825.78015,916.254,835.65,797.8155
2015-11-09 07:48:57,832.36005,917.89905,835.65,789.5906
2015-11-09 07:48:57,837.295,916.254,835.65,802.7504
2015-11-09 07:48:57,835.65,916.254,837.295,804.3954
2015-11-09 07:48:57,838.94,914.6091,834.005,794.5255
2015-11-09 07:48:57,837.295,912.9641,834.005,799.46045
2015-11-09 07:48:57,838.94,912.9641,832.36005,799.46045
2015-11-09 07:48:57,842.2299,912.9641,830.7151,796.1705
2015-11-09 07:48:57,832.36005,912.9641,830.7151,810.9753
2015-11-09 07:48:57,837.295,912.9641,835.65,809.3303
2015-11-09 07:48:57,827.4251,912.9641,835.65,810.9753
2015-11-09 07:48:57,817.55524,908.0292,835.65,815.9103
2015-11-09 07:48:57,819.2002,906.38416,840.58496,814.26526
2015-11-09 07:48:57,814.26526,906.38416,840.58496,814.26526
2015-11-09 07:48:57,820.8452,906.38416,842.2299,814.26526
2015-11-09 07:48:57,825.78015,911.3191,843.87494,815.9103
2015-11-09 07:48:57,822.4902,906.38416,837.295,812.6203
2015-11-09 07:48:57,815.9103,899.80426,835.65,812.6203
2015-11-09 07:48:57,819.2002,904.7392,835.65,812.6203
2015-11-09 07:48:57,820.8452,903.09424,837.295,815.9103
2015-11-09 07:48:57,817.55524,904.7392,835.65,809.3303
2015-11-09 07:48:57,817.55524,904.7392,835.65,809.3303
2015-11-09 07:48:57,820.8452,901.4492,837.295,815.9103
2015-11-09 07:48:57,820.8452,891.57935,835.65,806.04034
2015-11-09 07:48:57,822.4902,903.09424,838.94,806.04034
2015-11-09 07:48:57,825.78015,901.4492,837.295,810.9753
2015-11-09 07:48:57,824.13513,903.09424,837.295,814.26526
2015-11-09 07:48:57,829.07007,904.7392,835.65,810.9753
2015-11-09 07:48:57,834.005,898.15924,834.005,809.3303
2015-11-09 07:48:57,827.4251,901.4492,832.36005,807.68536
2015-11-09 07:48:57,830.7151,903.09424,832.36005,807.68536
2015-11-09 07:48:57,835.65,898.15924,834.005,810.9753
2015-11-09 07:48:57,834.005,899.80426,835.65,812.6203
2015-11-09 07:48:57,837.295,898.15924,838.94,814.26526
2015-11-09 07:48:57,842.2299,899.80426,837.295,812.6203
2015-11-09 07:48:57,838.94,898.15924,835.65,815.9103
2015-11-09 07:48:57,834.005,898.15924,834.005,815.9103
2015-11-09 07:48:57,829.07007,899.80426,835.65,809.3303
2015-11-09 07:48:57,825.78015,899.80426,835.65,810.9753
2015-11-09 07:48:57,825.78015,898.15924,835.65,817.55524
2015-11-09 07:48:57,820.8452,899.80426,838.94,806.04034
2015-11-09 07:48:57,820.8452,894.8693,837.295,802.7504
2015-11-09 07:48:57,824.13513,894.8693,840.58496,806.04034
2015-11-09 07:48:57,824.13513,894.8693,837.295,802.7504
2015-11-09 07:48:57,832.36005,891.57935,834.005,810.9753
2015-11-09 07:48:57,838.94,893.2243,830.7151,806.04034
2015-11-09 07:48:57,835.65,896.5143,830.7151,797.8155
2015-11-09 07:48:57,835.65,894.8693,830.7151,804.3954
2015-11-09 07:48:57,834.005,891.57935,827.4251,814.26526
2015-11-09 07:48:57,832.36005,891.57935,827.4251,815.9103
2015-11-09 07:48:57,837.295,896.5143,827.4251,815.9103
2015-11-09 07:48:57,837.295,894.8693,834.005,815.9103
2015-11-09 07:48:57,840.58496,894.8693,832.36005,806.04034
2015-11-09 07:48:57,843.87494,893.2243,832.36005,812.6203
2015-11-09 07:48:57,842.2299,891.57935,827.4251,814.26526
2015-11-09 07:48:57,848.8099,894.8693,829.07007,809.3303
2015-11-09 07:48:57,852.0998,894.8693,832.36005,814.26526
2015-11-09 07:48:57,845.5199,891.57935,832.36005,806.04034
2015-11-09 07:48:57,837.295,891.57935,834.005,806.04034
2015-11-09 07:48:57,830.7151,889.9344,832.36005,804.3954
2015-11-09 07:48:57,832.36005,889.9344,835.65,814.26526
2015-11-09 07:48:57,830.7151,888.28937,835.65,806.04034
2015-11-09 07:48:57,832.36005,888.28937,834.005,802.7504
2015-11-09 07:48:57,842.2299,891.57935,835.65,810.9753
2015-11-09 07:48:57,842.2299,889.9344,835.65,817.55524
2015-11-09 07:48:57,842.2299,886.6444,834.005,817.55524
2015-11-09 07:48:57,845.5199,889.9344,837.295,814.26526
2015-11-09 07:48:57,835.65,888.28937,832.36005,812.6203
2015-11-09 07:48:57,837.295,889.9344,832.36005,814.26526
2015-11-09 07:48:57,842.2299,893.2243,830.7151,819.2002
2015-11-09 07:48:57,848.8099,889.9344,837.295,815.9103
2015-11-09 07:48:57,847.16486,886.6444,842.2299,810.9753
2015-11-09 07:48:57,840.58496,889.9344,838.94,809.3303
2015-11-09 07:48:57,835.65,888.28937,838.94,806.04034
2015-11-09 07:48:57,822.4902,888.28937,834.005,799.46045
2015-11-09 07:48:57,822.4902,889.9344,830.7151,786.3006
2015-11-09 07:48:57,824.13513,884.99945,835.65,779.7207
2015-11-09 07:48:57,820.8452,883.35443,832.36005,778.0757
2015-11-09 07:48:57,822.4902,886.6444,832.36005,776.4307
2015-11-09 07:48:57,830.7151,888.28937,835.65,794.5255
2015-11-09 07:48:57,827.4251,884.99945,837.295,801.1054
2015-11-09 07:48:57,829.07007,881.7095,838.94,802.7504
2015-11-09 07:48:57,827.4251,884.99945,837.295,796.1705
2015-11-09 07:48:57,824.13513,884.99945,835.65,797.8155
2015-11-09 07:48:57,827.4251,883.35443,835.65,807.68536
2015-11-09 07:48:57,837.295,883.35443,838.94,815.9103
2015-11-09 07:48:57,832.36005,880.06445,835.65,807.68536
2015-11-09 07:48:57,832.36005,878.4195,835.65,804.3954
2015-11-09 07:48:57,837.295,881.7095,835.65,804.3954
2015-11-09 07:48:57,815.9103,884.99945,832.36005,794.5255
2015-11-09 07:48:57,812.6203,878.4195,840.58496,812.6203
2015-11-09 07:48:57,807.68536,876.77454,837.295,797.8155
2015-11-09 07:48:57,807.68536,881.7095,838.94,807.68536
2015-11-09 07:48:57,814.26526,876.77454,838.94,810.9753
2015-11-09 07:48:57,827.4251,883.35443,832.36005,794.5255
2015-11-09 07:48:57,842.2299,880.06445,838.94,812.6203
2015-11-09 07:48:57,842.2299,881.7095,830.7151,794.5255
2015-11-09 07:48:57,855.3898,886.6444,832.36005,806.04034
2015-11-09 07:48:57,848.8099,881.7095,829.07007,789.5906
2015-11-09 07:48:57,852.0998,884.99945,832.36005,791.23553
2015-11-09 07:48:57,847.16486,881.7095,830.7151,792.88055
2015-11-09 07:48:57,852.0998,880.06445,830.7151,792.88055
2015-11-09 07:48:57,837.295,880.06445,832.36005,797.8155
2015-11-09 07:48:57,838.94,883.35443,825.78015,791.23553
2015-11-09 07:48:57,845.5199,880.06445,834.005,804.3954
2015-11-09 07:48:57,835.65,880.06445,832.36005,801.1054
2015-11-09 07:48:57,837.295,880.06445,830.7151,799.46045
2015-11-09 07:48:57,830.7151,880.06445,827.4251,786.3006
2015-11-09 07:48:57,827.4251,881.7095,829.07007,792.88055
2015-11-09 07:48:57,815.9103,883.35443,832.36005,791.23553
2015-11-09 07:48:57,814.26526,878.4195,835.65,806.04034
2015-11-09 07:48:57,806.04034,875.1295,834.005,804.3954
2015-11-09 07:48:57,799.46045,875.1295,832.36005,796.1705
2015-11-09 07:48:57,804.3954,873.48456,830.7151,792.88055
2015-11-09 07:48:57,810.9753,870.1946,834.005,802.7504
2015-11-09 07:48:57,810.9753,870.1946,838.94,815.9103
2015-11-09 07:48:57,819.2002,868.5496,837.295,824.13513
2015-11-09 07:48:57,815.9103,875.1295,834.005,812.6203
2015-11-09 07:48:57,825.78015,871.8396,837.295,827.4251
2015-11-09 07:48:57,822.4902,870.1946,832.36005,814.26526
2015-11-09 07:48:57,824.13513,871.8396,834.005,819.2002
2015-11-09 07:48:57,822.4902,868.5496,832.36005,815.9103
2015-11-09 07:48:57,834.005,870.1946,832.36005,807.68536
2015-11-09 07:48:57,829.07007,875.1295,827.4251,806.04034
2015-11-09 07:48:57,838.94,875.1295,825.78015,802.7504
2015-11-09 07:48:57,837.295,873.48456,822.4902,797.8155
2015-11-09 07:48:57,835.65,880.06445,817.55524,784.65564
2015-11-09 07:48:57,845.5199,880.06445,815.9103,779.7207
2015-11-09 07:48:57,837.295,880.06445,814.26526,789.5906
2015-11-09 07:48:57,835.65,883.35443,822.4902,794.5255
2015-11-09 07:48:57,829.07007,878.4195,824.13513,784.65564
2015-11-09 07:48:57,832.36005,871.8396,829.07007,801.1054
2015-11-09 07:48:57,829.07007,873.48456,834.005,807.68536
2015-11-09 07:48:57,834.005,870.1946,835.65,814.26526
2015-11-09 07:48:57,830.7151,870.1946,837.295,824.13513
2015-11-09 07:48:57,830.7151,870.1946,842.2299,820.8452
2015-11-09 07:48:57,830.7151,871.8396,838.94,817.55524
2015-11-09 07:48:57,827.4251,873.48456,835.65,815.9103
2015-11-09 07:48:57,832.36005,873.48456,838.94,829.07007
2015-11-09 07:48:57,819.2002,880.06445,830.7151,809.3303
2015-11-09 07:48:57,825.78015,876.77454,830.7151,807.68536
2015-11-09 07:48:57,827.4251,875.1295,829.07007,799.46045
2015-11-09 07:48:57,827.4251,878.4195,829.07007,791.23553
2015-11-09 07:48:57,834.005,880.06445,827.4251,797.8155
2015-11-09 07:48:57,835.65,883.35443,825.78015,792.88055
2015-11-09 07:48:57,847.16486,881.7095,829.07007,814.26526
2015-11-09 07:48:57,838.94,881.7095,822.4902,791.23553
2015-11-09 07:48:57,857.0347,880.06445,829.07007,794.5255
2015-11-09 07:48:57,857.0347,881.7095,830.7151,791.23553
2015-11-09 07:48:57,853.7448,878.4195,830.7151,789.5906
2015-11-09 07:48:57,847.16486,880.06445,825.78015,786.3006
2015-11-09 07:48:57,850.45483,884.99945,825.78015,781.36566
2015-11-09 07:48:57,852.0998,884.99945,825.78015,783.0106
2015-11-09 07:48:57,855.3898,883.35443,825.78015,789.5906
2015-11-09 07:48:57,852.0998,881.7095,829.07007,804.3954
2015-11-09 07:48:57,848.8099,888.28937,822.4902,797.8155
2015-11-09 07:48:57,848.8099,888.28937,822.4902,797.8155
2015-11-09 07:48:57,840.58496,886.6444,825.78015,802.7504
2015-11-09 07:48:57,834.005,883.35443,829.07007,802.7504
2015-11-09 07:48:57,824.13513,878.4195,832.36005,810.9753
2015-11-09 07:48:57,807.68536,875.1295,827.4251,810.9753
2015-11-09 07:48:57,820.8452,873.48456,829.07007,820.8452
2015-11-09 07:48:57,825.78015,873.48456,835.65,825.78015
2015-11-09 07:48:57,819.2002,865.25964,838.94,824.13513
2015-11-09 07:48:57,822.4902,865.25964,838.94,815.9103
2015-11-09 07:48:57,817.55524,858.67975,837.295,817.55524
2015-11-09 07:48:57,815.9103,853.7448,838.94,824.13513
2015-11-09 07:48:57,814.26526,858.67975,840.58496,827.4251
2015-11-09 07:48:57,809.3303,871.8396,840.58496,827.4251
2015-11-09 07:48:57,810.9753,873.48456,838.94,820.8452
2015-11-09 07:48:57,806.04034,873.48456,834.005,807.68536
2015-11-09 07:48:57,809.3303,871.8396,835.65,812.6203
2015-11-09 07:48:57,810.9753,873.48456,837.295,809.3303
2015-11-09 07:48:57,807.68536,873.48456,835.65,810.9753
2015-11-09 07:48:57,819.2002,876.77454,830.7151,796.1705
2015-11-09 07:48:57,819.2002,870.1946,830.7151,801.1054
2015-11-09 07:48:57,817.55524,875.1295,825.78015,792.88055
2015-11-09 07:48:57,834.005,876.77454,825.78015,799.46045
2015-11-09 07:48:57,827.4251,878.4195,827.4251,807.68536
2015-11-09 07:48:57,830.7151,871.8396,832.36005,810.9753
2015-11-09 07:48:57,824.13513,871.8396,827.4251,801.1054
2015-11-09 07:48:57,824.13513,871.8396,824.13513,809.3303
2015-11-09 07:48:57,824.13513,868.5496,827.4251,810.9753
2015-11-09 07:48:57,822.4902,866.90466,827.4251,817.55524
2015-11-09 07:48:57,817.55524,865.25964,830.7151,817.55524
2015-11-09 07:48:57,817.55524,866.90466,830.7151,806.04034
2015-11-09 07:48:57,814.26526,863.6147,834.005,807.68536
2015-11-09 07:48:57,815.9103,865.25964,830.7151,804.3954
2015-11-09 07:48:57,817.55524,858.67975,835.65,810.9753
2015-11-09 07:48:57,806.04034,861.9697,830.7151,801.1054
2015-11-09 07:48:57,822.4902,865.25964,835.65,810.9753
2015-11-09 07:48:57,815.9103,863.6147,835.65,797.8155
2015-11-09 07:48:57,829.07007,865.25964,837.295,810.9753
2015-11-09 07:48:57,827.4251,863.6147,832.36005,804.3954
2015-11-09 07:48:57,824.13513,865.25964,827.4251,802.7504
2015-11-09 07:48:57,827.4251,866.90466,829.07007,819.2002
2015-11-09 07:48:57,832.36005,866.90466,830.7151,824.13513
2015-11-09 07:48:57,834.005,868.5496,840.58496,820.8452
2015-11-09 07:48:57,832.36005,865.25964,835.65,807.68536
2015-11-09 07:48:57,825.78015,865.25964,830.7151,802.7504
2015-11-09 07:48:57,825.78015,870.1946,827.4251,806.04034
2015-11-09 07:48:57,837.295,870.1946,830.7151,814.26526
2015-11-09 07:48:57,837.295,873.48456,829.07007,812.6203
2015-11-09 07:48:57,840.58496,873.48456,830.7151,814.26526
2015-11-09 07:48:57,838.94,868.5496,829.07007,810.9753
2015-11-09 07:48:57,832.36005,873.48456,830.7151,806.04034
2015-11-09 07:48:57,830.7151,871.8396,835.65,820.8452
2015-11-09 07:48:57,825.78015,871.8396,829.07007,804.3954
2015-11-09 07:48:57,827.4251,875.1295,835.65,817.55524
2015-11-09 07:48:57,824.13513,866.90466,835.65,814.26526
2015-11-09 07:48:57,829.07007,868.5496,837.295,819.2002
2015-11-09 07:48:57,812.6203,870.1946,834.005,807.68536
2015-11-09 07:48:57,819.2002,866.90466,829.07007,806.04034
2015-11-09 07:48:57,824.13513,868.5496,830.7151,817.55524
2015-11-09 07:48:57,824.13513,866.90466,834.005,812.6203
2015-11-09 07:48:57,829.07007,865.25964,832.36005,814.26526
2015-11-09 07:48:57,832.36005,866.90466,830.7151,810.9753
2015-11-09 07:48:57,842.2299,868.5496,834.005,817.55524
2015-11-09 07:48:57,852.0998,871.8396,834.005,827.4251
2015-11-09 07:48:57,840.58496,866.90466,834.005,819.2002
2015-11-09 07:48:57,819.2002,863.6147,832.36005,804.3954
2015-11-09 07:48:57,809.3303,866.90466,829.07007,789.5906
2015-11-09 07:48:57,804.3954,858.67975,830.7151,774.78577
2015-11-09 07:48:57,787.94556,870.1946,825.78015,753.401
2015-11-09 07:48:57,784.65564,863.6147,827.4251,756.691
2015-11-09 07:48:57,776.4307,855.3898,829.07007,743.5311
2015-11-09 07:48:57,773.14075,858.67975,834.005,759.9809
2015-11-09 07:48:57,769.8508,853.7448,834.005,759.9809
2015-11-09 07:48:57,766.56085,857.0347,830.7151,748.46606
2015-11-09 07:48:57,766.56085,855.3898,830.7151,753.401
2015-11-09 07:48:57,766.56085,853.7448,832.36005,763.2709
2015-11-09 07:48:57,781.36566,855.3898,834.005,761.6259
2015-11-09 07:48:57,786.3006,853.7448,830.7151,758.33594
2015-11-09 07:48:57,789.5906,853.7448,835.65,774.78577
2015-11-09 07:48:57,783.0106,857.0347,834.005,769.8508
2015-11-09 07:48:57,794.5255,861.9697,834.005,792.88055
2015-11-09 07:48:57,796.1705,870.1946,834.005,789.5906
2015-11-09 07:48:57,797.8155,870.1946,830.7151,784.65564
2015-11-09 07:48:57,806.04034,861.9697,832.36005,787.94556
2015-11-09 07:48:57,810.9753,863.6147,829.07007,779.7207
2015-11-09 07:48:57,815.9103,870.1946,829.07007,787.94556
2015-11-09 07:48:57,812.6203,866.90466,829.07007,778.0757
2015-11-09 07:48:57,822.4902,853.7448,834.005,786.3006
2015-11-09 07:48:57,809.3303,860.3247,834.005,784.65564
2015-11-09 07:48:57,810.9753,875.1295,830.7151,794.5255
2015-11-09 07:48:57,812.6203,878.4195,827.4251,796.1705
2015-11-09 07:48:58,817.55524,881.7095,824.13513,794.5255
2015-11-09 07:48:58,814.26526,870.1946,827.4251,801.1054
2015-11-09 07:48:58,819.2002,866.90466,827.4251,792.88055
2015-11-09 07:48:58,819.2002,868.5496,830.7151,807.68536
2015-11-09 07:48:58,815.9103,868.5496,830.7151,802.7504
2015-11-09 07:48:58,824.13513,865.25964,835.65,809.3303
2015-11-09 07:48:58,830.7151,860.3247,834.005,806.04034
2015-11-09 07:48:58,843.87494,870.1946,834.005,812.6203
2015-11-09 07:48:58,822.4902,868.5496,837.295,809.3303
2015-11-09 07:48:58,827.4251,861.9697,834.005,807.68536
2015-11-09 07:48:58,822.4902,866.90466,837.295,806.04034
2015-11-09 07:48:58,824.13513,875.1295,837.295,807.68536
2015-11-09 07:48:58,829.07007,873.48456,834.005,801.1054
2015-11-09 07:48:58,809.3303,873.48456,830.7151,784.65564
2015-11-09 07:48:58,820.8452,870.1946,832.36005,801.1054
2015-11-09 07:48:58,819.2002,863.6147,834.005,801.1054
2015-11-09 07:48:58,824.13513,865.25964,834.005,810.9753
2015-11-09 07:48:58,817.55524,866.90466,830.7151,807.68536
2015-11-09 07:48:58,827.4251,871.8396,829.07007,807.68536
2015-11-09 07:48:58,835.65,868.5496,832.36005,807.68536
2015-11-09 07:48:58,840.58496,875.1295,834.005,802.7504
2015-11-09 07:48:58,843.87494,863.6147,840.58496,819.2002
2015-11-09 07:48:58,825.78015,857.0347,835.65,797.8155
2015-11-09 07:48:58,825.78015,866.90466,835.65,804.3954
2015-11-09 07:48:58,824.13513,865.25964,832.36005,804.3954
2015-11-09 07:48:58,825.78015,868.5496,829.07007,802.7504
2015-11-09 07:48:58,830.7151,866.90466,825.78015,807.68536
2015-11-09 07:48:58,837.295,868.5496,832.36005,817.55524
2015-11-09 07:48:58,842.2299,870.1946,837.295,822.4902
2015-11-09 07:48:58,829.07007,873.48456,832.36005,809.3303
2015-11-09 07:48:58,834.005,873.48456,835.65,814.26526
2015-11-09 07:48:58,835.65,866.90466,834.005,817.55524
2015-11-09 07:48:58,842.2299,871.8396,832.36005,834.005
2015-11-09 07:48:58,852.0998,870.1946,838.94,840.58496
2015-11-09 07:48:58,840.58496,870.1946,832.36005,820.8452
2015-11-09 07:48:58,835.65,873.48456,837.295,812.6203
2015-11-09 07:48:58,835.65,873.48456,829.07007,814.26526
2015-11-09 07:48:58,845.5199,873.48456,832.36005,820.8452
2015-11-09 07:48:58,857.0347,868.5496,832.36005,812.6203
2015-11-09 07:48:58,865.25964,870.1946,824.13513,817.55524
2015-11-09 07:48:58,861.9697,870.1946,824.13513,810.9753
2015-11-09 07:48:58,855.3898,866.90466,822.4902,812.6203
2015-11-09 07:48:58,848.8099,865.25964,827.4251,820.8452
2015-11-09 07:48:58,837.295,875.1295,830.7151,812.6203
2015-11-09 07:48:58,837.295,873.48456,830.7151,819.2002
2015-11-09 07:48:58,850.45483,873.48456,829.07007,814.26526
2015-11-09 07:48:58,848.8099,876.77454,835.65,814.26526
2015-11-09 07:48:58,850.45483,873.48456,838.94,820.8452
2015-11-09 07:48:58,843.87494,871.8396,837.295,822.4902
2015-11-09 07:48:58,834.005,866.90466,834.005,829.07007
2015-11-09 07:48:58,832.36005,866.90466,832.36005,824.13513
2015-11-09 07:48:58,830.7151,863.6147,830.7151,822.4902
2015-11-09 07:48:58,834.005,876.77454,835.65,820.8452
2015-11-09 07:48:58,835.65,880.06445,837.295,822.4902
2015-11-09 07:48:58,843.87494,875.1295,835.65,819.2002
2015-11-09 07:48:58,845.5199,873.48456,834.005,819.2002
2015-11-09 07:48:58,843.87494,868.5496,825.78015,830.7151
2015-11-09 07:48:58,842.2299,863.6147,814.26526,832.36005
2015-11-09 07:48:58,840.58496,875.1295,825.78015,820.8452
2015-11-09 07:48:58,843.87494,868.5496,838.94,824.13513
2015-11-09 07:48:58,840.58496,853.7448,842.2299,820.8452
2015-11-09 07:48:58,832.36005,857.0347,843.87494,814.26526
2015-11-09 07:48:58,832.36005,888.28937,834.005,824.13513
2015-11-09 07:48:58,835.65,889.9344,829.07007,825.78015
2015-11-09 07:48:58,835.65,888.28937,829.07007,824.13513
2015-11-09 07:48:58,838.94,881.7095,832.36005,822.4902
2015-11-09 07:48:58,834.005,866.90466,830.7151,815.9103
2015-11-09 07:48:58,825.78015,875.1295,830.7151,822.4902
2015-11-09 07:48:58,832.36005,873.48456,832.36005,817.55524
2015-11-09 07:48:58,830.7151,865.25964,830.7151,819.2002
2015-11-09 07:48:58,832.36005,866.90466,832.36005,822.4902
2015-11-09 07:48:58,837.295,875.1295,830.7151,810.9753
2015-11-09 07:48:58,837.295,873.48456,827.4251,819.2002
2015-11-09 07:48:58,837.295,865.25964,832.36005,817.55524
2015-11-09 07:48:58,832.36005,866.90466,827.4251,815.9103
2015-11-09 07:48:58,830.7151,868.5496,827.4251,819.2002
2015-11-09 07:48:58,832.36005,863.6147,837.295,819.2002
2015-11-09 07:48:58,837.295,870.1946,837.295,820.8452
2015-11-09 07:48:58,843.87494,873.48456,835.65,810.9753
2015-11-09 07:48:58,838.94,873.48456,834.005,807.68536
2015-11-09 07:48:58,845.5199,871.8396,827.4251,799.46045
2015-11-09 07:48:58,843.87494,868.5496,825.78015,807.68536
2015-11-09 07:48:58,832.36005,870.1946,825.78015,806.04034
2015-11-09 07:48:58,832.36005,871.8396,825.78015,814.26526
2015-11-09 07:48:58,835.65,868.5496,827.4251,812.6203
2015-11-09 07:48:58,843.87494,866.90466,830.7151,817.55524
2015-11-09 07:48:58,853.7448,871.8396,827.4251,825.78015
2015-11-09 07:48:58,852.0998,871.8396,829.07007,819.2002
2015-11-09 07:48:58,835.65,870.1946,829.07007,802.7504
2015-11-09 07:48:58,837.295,871.8396,827.4251,804.3954
2015-11-09 07:48:58,835.65,866.90466,832.36005,809.3303
2015-11-09 07:48:58,832.36005,866.90466,830.7151,806.04034
2015-11-09 07:48:58,842.2299,865.25964,829.07007,812.6203
2015-11-09 07:48:58,834.005,863.6147,832.36005,812.6203
2015-11-09 07:48:58,834.005,866.90466,829.07007,820.8452
2015-11-09 07:48:58,843.87494,868.5496,820.8452,820.8452
2015-11-09 07:48:58,845.5199,873.48456,820.8452,815.9103
2015-11-09 07:48:58,845.5199,871.8396,827.4251,814.26526
2015-11-09 07:48:58,853.7448,870.1946,827.4251,812.6203
2015-11-09 07:48:58,843.87494,866.90466,834.005,825.78015
2015-11-09 07:48:58,847.16486,866.90466,835.65,817.55524
2015-11-09 07:48:58,842.2299,865.25964,837.295,815.9103
2015-11-09 07:48:58,842.2299,870.1946,834.005,825.78015
2015-11-09 07:48:58,848.8099,868.5496,830.7151,820.8452
2015-11-09 07:48:58,845.5199,871.8396,827.4251,825.78015
2015-11-09 07:48:58,847.16486,866.90466,819.2002,822.4902
2015-11-09 07:48:58,847.16486,861.9697,825.78015,822.4902
2015-11-09 07:48:58,847.16486,871.8396,830.7151,822.4902
2015-11-09 07:48:58,845.5199,876.77454,822.4902,815.9103
2015-11-09 07:48:58,847.16486,881.7095,830.7151,814.26526
2015-11-09 07:48:58,842.2299,881.7095,825.78015,812.6203
2015-11-09 07:48:58,840.58496,876.77454,814.26526,814.26526
2015-11-09 07:48:58,847.16486,875.1295,822.4902,822.4902
2015-11-09 07:48:58,842.2299,871.8396,837.295,814.26526
2015-11-09 07:48:58,845.5199,870.1946,834.005,825.78015
2015-11-09 07:48:58,842.2299,875.1295,835.65,820.8452
2015-11-09 07:48:58,837.295,875.1295,840.58496,820.8452
2015-11-09 07:48:58,838.94,871.8396,834.005,822.4902
2015-11-09 07:48:58,842.2299,875.1295,837.295,824.13513
2015-11-09 07:48:58,835.65,866.90466,835.65,822.4902
2015-11-09 07:48:58,832.36005,866.90466,834.005,822.4902
2015-11-09 07:48:58,838.94,868.5496,832.36005,820.8452
2015-11-09 07:48:58,838.94,863.6147,837.295,819.2002
2015-11-09 07:48:58,835.65,868.5496,834.005,819.2002
2015-11-09 07:48:58,835.65,870.1946,829.07007,824.13513
2015-11-09 07:48:58,840.58496,865.25964,835.65,822.4902
2015-11-09 07:48:58,838.94,868.5496,837.295,825.78015
2015-11-09 07:48:58,845.5199,870.1946,837.295,825.78015
2015-11-09 07:48:58,840.58496,875.1295,835.65,825.78015
2015-11-09 07:48:58,827.4251,873.48456,832.36005,817.55524
2015-11-09 07:48:58,834.005,868.5496,829.07007,809.3303
2015-11-09 07:48:58,837.295,866.90466,817.55524,814.26526
2015-11-09 07:48:58,837.295,865.25964,825.78015,824.13513
2015-11-09 07:48:58,842.2299,863.6147,832.36005,827.4251
2015-11-09 07:48:58,838.94,863.6147,832.36005,825.78015
2015-11-09 07:48:58,838.94,865.25964,837.295,819.2002
2015-11-09 07:48:58,845.5199,875.1295,832.36005,819.2002
2015-11-09 07:48:58,840.58496,875.1295,832.36005,819.2002
2015-11-09 07:48:58,838.94,878.4195,837.295,822.4902
2015-11-09 07:48:58,827.4251,873.48456,835.65,814.26526
2015-11-09 07:48:58,815.9103,866.90466,837.295,819.2002
2015-11-09 07:48:58,819.2002,865.25964,838.94,822.4902
2015-11-09 07:48:58,827.4251,861.9697,840.58496,829.07007
2015-11-09 07:48:58,829.07007,863.6147,837.295,829.07007
2015-11-09 07:48:58,819.2002,870.1946,834.005,825.78015
2015-11-09 07:48:58,819.2002,873.48456,829.07007,819.2002
2015-11-09 07:48:58,822.4902,871.8396,830.7151,820.8452
2015-11-09 07:48:58,830.7151,865.25964,829.07007,824.13513
2015-11-09 07:48:58,830.7151,863.6147,830.7151,827.4251
2015-11-09 07:48:58,827.4251,868.5496,832.36005,819.2002
2015-11-09 07:48:58,825.78015,868.5496,832.36005,810.9753
2015-11-09 07:48:58,835.65,876.77454,837.295,807.68536
2015-11-09 07:48:58,837.295,876.77454,832.36005,819.2002
2015-11-09 07:48:58,835.65,873.48456,834.005,822.4902
2015-11-09 07:48:58,840.58496,870.1946,834.005,824.13513
2015-11-09 07:48:58,838.94,865.25964,830.7151,814.26526
2015-11-09 07:48:58,842.2299,870.1946,837.295,807.68536
2015-11-09 07:48:58,838.94,875.1295,838.94,810.9753
2015-11-09 07:48:58,837.295,873.48456,834.005,810.9753
2015-11-09 07:48:58,837.295,868.5496,832.36005,820.8452
2015-11-09 07:48:58,832.36005,868.5496,837.295,822.4902
2015-11-09 07:48:58,832.36005,865.25964,834.005,815.9103
2015-11-09 07:48:58,843.87494,870.1946,835.65,820.8452
2015-11-09 07:48:58,837.295,870.1946,838.94,824.13513
2015-11-09 07:48:58,842.2299,866.90466,834.005,822.4902
2015-11-09 07:48:58,840.58496,871.8396,834.005,817.55524
2015-11-09 07:48:58,837.295,868.5496,835.65,814.26526
2015-11-09 07:48:58,837.295,866.90466,830.7151,814.26526
2015-11-09 07:48:58,837.295,870.1946,834.005,819.2002
2015-11-09 07:48:58,827.4251,875.1295,838.94,814.26526
2015-11-09 07:48:58,824.13513,875.1295,837.295,810.9753
2015-11-09 07:48:58,830.7151,871.8396,835.65,820.8452
2015-11-09 07:48:58,820.8452,868.5496,830.7151,807.68536
2015-11-09 07:48:58,834.005,868.5496,840.58496,820.8452
2015-11-09 07:48:58,827.4251,868.5496,842.2299,815.9103
2015-11-09 07:48:58,827.4251,866.90466,843.87494,819.2002
2015-11-09 07:48:58,827.4251,871.8396,843.87494,820.8452
2015-11-09 07:48:58,830.7151,870.1946,842.2299,815.9103
2015-11-09 07:48:58,827.4251,871.8396,843.87494,819.2002
2015-11-09 07:48:58,832.36005,871.8396,843.87494,815.9103
2015-11-09 07:48:58,827.4251,865.25964,838.94,822.4902
2015-11-09 07:48:58,817.55524,861.9697,832.36005,817.55524
2015-11-09 07:48:58,829.07007,865.25964,835.65,824.13513
2015-11-09 07:48:58,834.005,861.9697,834.005,822.4902
2015-11-09 07:48:58,838.94,871.8396,835.65,817.55524
2015-11-09 07:48:58,843.87494,871.8396,835.65,815.9103
2015-11-09 07:48:58,840.58496,871.8396,840.58496,817.55524
2015-11-09 07:48:58,838.94,865.25964,834.005,824.13513
2015-11-09 07:48:58,840.58496,861.9697,827.4251,815.9103
2015-11-09 07:48:58,835.65,870.1946,838.94,814.26526
2015-11-09 07:48:58,834.005,873.48456,842.2299,822.4902
2015-11-09 07:48:58,840.58496,870.1946,850.45483,827.4251
2015-11-09 07:48:58,832.36005,870.1946,845.5199,825.78015
2015-11-09 07:48:58,822.4902,865.25964,837.295,817.55524
2015-11-09 07:48:58,832.36005,868.5496,830.7151,815.9103
2015-11-09 07:48:58,838.94,865.25964,837.295,832.36005
2015-11-09 07:48:58,838.94,861.9697,842.2299,827.4251
2015-11-09 07:48:58,840.58496,865.25964,838.94,825.78015
2015-11-09 07:48:58,843.87494,863.6147,840.58496,827.4251
2015-11-09 07:48:58,840.58496,865.25964,835.65,829.07007
2015-11-09 07:48:58,842.2299,870.1946,829.07007,835.65
2015-11-09 07:48:58,834.005,873.48456,827.4251,822.4902
2015-11-09 07:48:58,830.7151,875.1295,837.295,812.6203
2015-11-09 07:48:58,834.005,871.8396,837.295,820.8452
2015-11-09 07:48:58,830.7151,868.5496,834.005,810.9753
2015-11-09 07:48:58,838.94,865.25964,832.36005,820.8452
2015-11-09 07:48:58,834.005,871.8396,840.58496,820.8452
2015-11-09 07:48:58,827.4251,873.48456,845.5199,820.8452
2015-11-09 07:48:58,838.94,868.5496,843.87494,829.07007
2015-11-09 07:48:58,835.65,873.48456,838.94,824.13513
2015-11-09 07:48:58,835.65,868.5496,832.36005,820.8452
2015-11-09 07:48:58,817.55524,868.5496,827.4251,814.26526
2015-11-09 07:48:58,822.4902,870.1946,832.36005,819.2002
2015-11-09 07:48:58,814.26526,866.90466,832.36005,815.9103
2015-11-09 07:48:58,814.26526,870.1946,835.65,820.8452
2015-11-09 07:48:58,817.55524,870.1946,837.295,817.55524
2015-11-09 07:48:58,819.2002,865.25964,830.7151,817.55524
2015-11-09 07:48:58,819.2002,863.6147,829.07007,824.13513
2015-11-09 07:48:58,820.8452,863.6147,835.65,814.26526
2015-11-09 07:48:58,825.78015,865.25964,838.94,820.8452
2015-11-09 07:48:58,827.4251,870.1946,834.005,820.8452
2015-11-09 07:48:58,837.295,870.1946,837.295,830.7151
2015-11-09 07:48:59,835.65,876.77454,832.36005,817.55524
2015-11-09 07:48:59,843.87494,873.48456,837.295,827.4251
2015-11-09 07:48:59,838.94,878.4195,830.7151,809.3303
2015-11-09 07:48:59,845.5199,875.1295,834.005,817.55524
2015-11-09 07:48:59,835.65,871.8396,842.2299,819.2002
2015-11-09 07:48:59,843.87494,873.48456,840.58496,806.04034
2015-11-09 07:48:59,843.87494,868.5496,840.58496,824.13513
2015-11-09 07:48:59,843.87494,870.1946,835.65,814.26526
2015-11-09 07:48:59,838.94,868.5496,838.94,820.8452
2015-11-09 07:48:59,842.2299,870.1946,837.295,812.6203
2015-11-09 07:48:59,848.8099,865.25964,842.2299,804.3954
2015-11-09 07:48:59,843.87494,863.6147,834.005,802.7504
2015-11-09 07:48:59,853.7448,868.5496,837.295,814.26526
2015-11-09 07:48:59,834.005,868.5496,832.36005,802.7504
2015-11-09 07:48:59,850.45483,873.48456,837.295,806.04034
2015-11-09 07:48:59,855.3898,875.1295,837.295,797.8155
2015-11-09 07:48:59,857.0347,875.1295,840.58496,807.68536
2015-11-09 07:48:59,848.8099,875.1295,835.65,797.8155
2015-11-09 07:48:59,847.16486,876.77454,829.07007,806.04034
2015-11-09 07:48:59,847.16486,868.5496,829.07007,809.3303
2015-11-09 07:48:59,850.45483,870.1946,837.295,794.5255
2015-11-09 07:48:59,852.0998,871.8396,837.295,804.3954
2015-11-09 07:48:59,858.67975,871.8396,837.295,797.8155
2015-11-09 07:48:59,870.1946,866.90466,845.5199,804.3954
2015-11-09 07:48:59,857.0347,871.8396,840.58496,802.7504
2015-11-09 07:48:59,852.0998,873.48456,842.2299,802.7504
2015-11-09 07:48:59,852.0998,870.1946,837.295,799.46045
2015-11-09 07:48:59,845.5199,870.1946,832.36005,797.8155
2015-11-09 07:48:59,857.0347,865.25964,832.36005,802.7504
2015-11-09 07:48:59,853.7448,865.25964,834.005,814.26526
2015-11-09 07:48:59,843.87494,866.90466,838.94,810.9753
2015-11-09 07:48:59,840.58496,866.90466,832.36005,796.1705
2015-11-09 07:48:59,838.94,865.25964,834.005,806.04034
2015-11-09 07:48:59,830.7151,865.25964,830.7151,807.68536
2015-11-09 07:48:59,827.4251,863.6147,830.7151,806.04034
2015-11-09 07:48:59,827.4251,860.3247,835.65,812.6203
2015-11-09 07:48:59,835.65,868.5496,835.65,797.8155
2015-11-09 07:48:59,843.87494,871.8396,838.94,804.3954
2015-11-09 07:48:59,843.87494,875.1295,832.36005,802.7504
2015-11-09 07:48:59,847.16486,868.5496,832.36005,819.2002
2015-11-09 07:48:59,838.94,865.25964,832.36005,806.04034
2015-11-09 07:48:59,837.295,863.6147,834.005,801.1054
2015-11-09 07:48:59,842.2299,860.3247,835.65,810.9753
2015-11-09 07:48:59,840.58496,860.3247,835.65,807.68536
2015-11-09 07:48:59,838.94,868.5496,843.87494,812.6203
2015-11-09 07:48:59,845.5199,873.48456,834.005,807.68536
2015-11-09 07:48:59,847.16486,871.8396,837.295,802.7504
2015-11-09 07:48:59,835.65,871.8396,832.36005,796.1705
2015-11-09 07:48:59,845.5199,870.1946,827.4251,812.6203
2015-11-09 07:48:59,850.45483,871.8396,832.36005,825.78015
2015-11-09 07:48:59,845.5199,871.8396,830.7151,824.13513
2015-11-09 07:48:59,850.45483,868.5496,830.7151,825.78015
2015-11-09 07:48:59,843.87494,871.8396,829.07007,817.55524
2015-11-09 07:48:59,850.45483,870.1946,835.65,820.8452
2015-11-09 07:48:59,855.3898,868.5496,835.65,822.4902
2015-11-09 07:48:59,847.16486,858.67975,837.295,825.78015
2015-11-09 07:48:59,837.295,858.67975,837.295,820.8452
2015-11-09 07:48:59,834.005,865.25964,835.65,820.8452
2015-11-09 07:48:59,835.65,861.9697,837.295,820.8452
2015-11-09 07:48:59,842.2299,868.5496,834.005,815.9103
2015-11-09 07:48:59,847.16486,865.25964,834.005,812.6203
2015-11-09 07:48:59,850.45483,865.25964,830.7151,812.6203
2015-11-09 07:48:59,858.67975,870.1946,827.4251,807.68536
2015-11-09 07:48:59,858.67975,868.5496,827.4251,812.6203
2015-11-09 07:48:59,863.6147,871.8396,829.07007,810.9753
2015-11-09 07:48:59,858.67975,868.5496,825.78015,801.1054
2015-11-09 07:48:59,860.3247,871.8396,822.4902,801.1054
2015-11-09 07:48:59,853.7448,868.5496,829.07007,817.55524
2015-11-09 07:48:59,852.0998,870.1946,829.07007,814.26526
2015-11-09 07:48:59,855.3898,868.5496,829.07007,819.2002
2015-11-09 07:48:59,855.3898,865.25964,827.4251,810.9753
2015-11-09 07:48:59,861.9697,861.9697,825.78015,817.55524
2015-11-09 07:48:59,853.7448,865.25964,829.07007,804.3954
2015-11-09 07:48:59,855.3898,863.6147,838.94,815.9103
2015-11-09 07:48:59,842.2299,866.90466,832.36005,806.04034
2015-11-09 07:48:59,848.8099,870.1946,832.36005,806.04034
2015-11-09 07:48:59,845.5199,863.6147,832.36005,812.6203
2015-11-09 07:48:59,838.94,863.6147,834.005,814.26526
2015-11-09 07:48:59,837.295,860.3247,835.65,806.04034
2015-11-09 07:48:59,834.005,860.3247,830.7151,794.5255
2015-11-09 07:48:59,837.295,866.90466,832.36005,801.1054
2015-11-09 07:48:59,838.94,865.25964,832.36005,794.5255
2015-11-09 07:48:59,845.5199,863.6147,832.36005,814.26526
2015-11-09 07:48:59,838.94,865.25964,830.7151,801.1054
2015-11-09 07:48:59,845.5199,865.25964,829.07007,804.3954
2015-11-09 07:48:59,845.5199,865.25964,825.78015,799.46045
2015-11-09 07:48:59,850.45483,868.5496,827.4251,802.7504
2015-11-09 07:48:59,848.8099,861.9697,837.295,807.68536
2015-11-09 07:48:59,848.8099,865.25964,832.36005,802.7504
2015-11-09 07:48:59,853.7448,865.25964,834.005,812.6203
2015-11-09 07:48:59,853.7448,868.5496,832.36005,809.3303
2015-11-09 07:48:59,853.7448,870.1946,824.13513,804.3954
2015-11-09 07:48:59,853.7448,865.25964,835.65,809.3303
2015-11-09 07:48:59,843.87494,863.6147,835.65,810.9753
2015-11-09 07:48:59,835.65,860.3247,837.295,815.9103
2015-11-09 07:48:59,830.7151,865.25964,832.36005,820.8452
2015-11-09 07:48:59,830.7151,863.6147,834.005,819.2002
2015-11-09 07:48:59,829.07007,860.3247,832.36005,807.68536
2015-11-09 07:48:59,838.94,857.0347,827.4251,819.2002
2015-11-09 07:48:59,847.16486,857.0347,822.4902,814.26526
2015-11-09 07:48:59,847.16486,866.90466,824.13513,819.2002
2015-11-09 07:48:59,842.2299,870.1946,830.7151,815.9103
2015-11-09 07:48:59,850.45483,865.25964,835.65,825.78015
2015-11-09 07:48:59,843.87494,863.6147,832.36005,810.9753
2015-11-09 07:48:59,855.3898,858.67975,835.65,825.78015
2015-11-09 07:48:59,842.2299,858.67975,829.07007,815.9103
2015-11-09 07:48:59,837.295,857.0347,837.295,819.2002
2015-11-09 07:48:59,832.36005,852.0998,835.65,814.26526
2015-11-09 07:48:59,822.4902,857.0347,835.65,807.68536
2015-11-09 07:48:59,820.8452,857.0347,834.005,806.04034
2015-11-09 07:48:59,820.8452,860.3247,830.7151,797.8155
2015-11-09 07:48:59,817.55524,857.0347,830.7151,801.1054
2015-11-09 07:48:59,832.36005,860.3247,827.4251,799.46045
2015-11-09 07:48:59,837.295,863.6147,830.7151,804.3954
2015-11-09 07:48:59,838.94,866.90466,827.4251,794.5255
2015-11-09 07:48:59,845.5199,865.25964,827.4251,807.68536
2015-11-09 07:48:59,838.94,868.5496,824.13513,797.8155
2015-11-09 07:48:59,848.8099,866.90466,832.36005,809.3303
2015-11-09 07:48:59,843.87494,866.90466,829.07007,792.88055
2015-11-09 07:48:59,852.0998,865.25964,829.07007,791.23553
2015-11-09 07:48:59,848.8099,861.9697,822.4902,796.1705
2015-11-09 07:48:59,843.87494,868.5496,824.13513,789.5906
2015-11-09 07:48:59,845.5199,865.25964,827.4251,792.88055
2015-11-09 07:48:59,842.2299,863.6147,830.7151,792.88055
2015-11-09 07:48:59,830.7151,865.25964,832.36005,792.88055
2015-11-09 07:48:59,837.295,865.25964,825.78015,799.46045
2015-11-09 07:48:59,840.58496,860.3247,820.8452,796.1705
2015-11-09 07:48:59,845.5199,865.25964,825.78015,787.94556
2015-11-09 07:48:59,842.2299,863.6147,829.07007,791.23553
2015-11-09 07:48:59,847.16486,868.5496,829.07007,794.5255
2015-11-09 07:48:59,842.2299,866.90466,830.7151,792.88055
2015-11-09 07:48:59,837.295,861.9697,827.4251,792.88055
2015-11-09 07:48:59,837.295,858.67975,827.4251,787.94556
2015-11-09 07:48:59,829.07007,855.3898,829.07007,792.88055
2015-11-09 07:48:59,830.7151,860.3247,827.4251,794.5255
2015-11-09 07:48:59,830.7151,865.25964,825.78015,791.23553
2015-11-09 07:48:59,827.4251,863.6147,825.78015,786.3006
2015-11-09 07:48:59,829.07007,861.9697,825.78015,791.23553
2015-11-09 07:48:59,840.58496,860.3247,824.13513,787.94556
2015-11-09 07:48:59,835.65,860.3247,830.7151,802.7504
2015-11-09 07:48:59,825.78015,866.90466,830.7151,791.23553
2015-11-09 07:48:59,843.87494,865.25964,834.005,809.3303
2015-11-09 07:48:59,822.4902,861.9697,829.07007,797.8155
2015-11-09 07:48:59,834.005,865.25964,824.13513,794.5255
2015-11-09 07:48:59,837.295,865.25964,825.78015,797.8155
2015-11-09 07:48:59,835.65,866.90466,827.4251,796.1705
2015-11-09 07:48:59,848.8099,870.1946,827.4251,797.8155
2015-11-09 07:48:59,834.005,866.90466,822.4902,781.36566
2015-11-09 07:48:59,824.13513,866.90466,824.13513,781.36566
2015-11-09 07:48:59,817.55524,868.5496,822.4902,781.36566
2015-11-09 07:48:59,824.13513,868.5496,824.13513,789.5906
2015-11-09 07:48:59,829.07007,868.5496,827.4251,787.94556
2015-11-09 07:48:59,824.13513,868.5496,824.13513,792.88055
2015-11-09 07:48:59,820.8452,868.5496,824.13513,789.5906
2015-11-09 07:48:59,820.8452,863.6147,827.4251,801.1054
2015-11-09 07:48:59,824.13513,863.6147,824.13513,806.04034
2015-11-09 07:48:59,827.4251,861.9697,825.78015,797.8155
2015-11-09 07:48:59,819.2002,857.0347,827.4251,802.7504
2015-11-09 07:48:59,819.2002,860.3247,827.4251,796.1705
2015-11-09 07:48:59,820.8452,860.3247,827.4251,792.88055
2015-11-09 07:48:59,812.6203,858.67975,824.13513,794.5255
2015-11-09 07:48:59,815.9103,860.3247,822.4902,796.1705
2015-11-09 07:48:59,814.26526,860.3247,827.4251,801.1054
2015-11-09 07:48:59,815.9103,858.67975,829.07007,804.3954
2015-11-09 07:48:59,815.9103,857.0347,829.07007,807.68536
2015-11-09 07:48:59,819.2002,858.67975,829.07007,809.3303
2015-11-09 07:48:59,814.26526,852.0998,820.8452,807.68536
2015-11-09 07:48:59,829.07007,855.3898,820.8452,802.7504
2015-11-09 07:48:59,824.13513,860.3247,824.13513,806.04034
2015-11-09 07:48:59,830.7151,865.25964,824.13513,814.26526
2015-11-09 07:48:59,830.7151,863.6147,829.07007,809.3303
2015-11-09 07:48:59,824.13513,863.6147,825.78015,815.9103
2015-11-09 07:48:59,830.7151,863.6147,820.8452,819.2002
2015-11-09 07:48:59,837.295,861.9697,820.8452,819.2002
2015-11-09 07:48:59,842.2299,870.1946,819.2002,817.55524
2015-11-09 07:48:59,843.87494,871.8396,827.4251,814.26526
2015-11-09 07:48:59,842.2299,863.6147,827.4251,814.26526
2015-11-09 07:48:59,837.295,861.9697,827.4251,815.9103
2015-11-09 07:48:59,837.295,863.6147,827.4251,817.55524
2015-11-09 07:48:59,838.94,861.9697,824.13513,807.68536
2015-11-09 07:48:59,837.295,861.9697,822.4902,801.1054
2015-11-09 07:48:59,840.58496,863.6147,822.4902,810.9753
2015-11-09 07:48:59,834.005,865.25964,824.13513,810.9753
2015-11-09 07:48:59,829.07007,866.90466,825.78015,812.6203
2015-11-09 07:48:59,834.005,865.25964,824.13513,817.55524
2015-11-09 07:48:59,837.295,863.6147,824.13513,807.68536
2015-11-09 07:48:59,832.36005,858.67975,824.13513,815.9103
2015-11-09 07:48:59,827.4251,858.67975,825.78015,814.26526
2015-11-09 07:48:59,835.65,865.25964,825.78015,810.9753
2015-11-09 07:48:59,840.58496,866.90466,822.4902,809.3303
2015-11-09 07:48:59,843.87494,865.25964,819.2002,804.3954
2015-11-09 07:48:59,840.58496,860.3247,817.55524,802.7504
2015-11-09 07:48:59,835.65,863.6147,822.4902,806.04034
2015-11-09 07:48:59,834.005,863.6147,825.78015,817.55524
2015-11-09 07:48:59,835.65,863.6147,824.13513,810.9753
2015-11-09 07:48:59,834.005,868.5496,829.07007,814.26526
2015-11-09 07:48:59,838.94,866.90466,827.4251,809.3303
2015-11-09 07:49:00,847.16486,865.25964,824.13513,807.68536
2015-11-09 07:49:00,840.58496,870.1946,824.13513,806.04034
2015-11-09 07:49:00,845.5199,866.90466,820.8452,806.04034
2015-11-09 07:49:00,840.58496,860.3247,824.13513,812.6203
2015-11-09 07:49:00,837.295,858.67975,825.78015,806.04034
2015-11-09 07:49:00,835.65,868.5496,819.2002,814.26526
2015-11-09 07:49:00,835.65,863.6147,814.26526,810.9753
2015-11-09 07:49:00,827.4251,866.90466,824.13513,809.3303
2015-11-09 07:49:00,830.7151,866.90466,829.07007,814.26526
2015-11-09 07:49:00,843.87494,860.3247,834.005,810.9753
2015-11-09 07:49:00,843.87494,865.25964,834.005,807.68536
2015-11-09 07:49:00,842.2299,866.90466,829.07007,809.3303
2015-11-09 07:49:00,840.58496,865.25964,829.07007,810.9753
2015-11-09 07:49:00,847.16486,865.25964,829.07007,807.68536
2015-11-09 07:49:00,848.8099,863.6147,829.07007,807.68536
2015-11-09 07:49:00,848.8099,861.9697,829.07007,806.04034
2015-11-09 07:49:00,858.67975,861.9697,827.4251,804.3954
2015-11-09 07:49:00,850.45483,866.90466,830.7151,806.04034
2015-11-09 07:49:00,835.65,870.1946,829.07007,812.6203
2015-11-09 07:49:00,835.65,870.1946,827.4251,806.04034
2015-11-09 07:49:00,832.36005,871.8396,825.78015,809.3303
2015-11-09 07:49:00,847.16486,871.8396,824.13513,802.7504
2015-11-09 07:49:00,852.0998,870.1946,822.4902,801.1054
2015-11-09 07:49:00,850.45483,866.90466,822.4902,810.9753
2015-11-09 07:49:00,848.8099,870.1946,824.13513,810.9753
2015-11-09 07:49:00,837.295,870.1946,824.13513,807.68536
2015-11-09 07:49:00,835.65,866.90466,822.4902,796.1705
2015-11-09 07:49:00,835.65,870.1946,822.4902,797.8155
2015-11-09 07:49:00,840.58496,868.5496,822.4902,804.3954
2015-11-09 07:49:00,842.2299,868.5496,822.4902,809.3303
2015-11-09 07:49:00,845.5199,866.90466,820.8452,810.9753
2015-11-09 07:49:00,837.295,861.9697,822.4902,802.7504
2015-11-09 07:49:00,834.005,863.6147,830.7151,807.68536
2015-11-09 07:49:00,838.94,863.6147,830.7151,817.55524
2015-11-09 07:49:00,835.65,863.6147,832.36005,814.26526
2015-11-09 07:49:00,832.36005,863.6147,829.07007,807.68536
2015-11-09 07:49:00,824.13513,858.67975,824.13513,804.3954
2015-11-09 07:49:00,830.7151,865.25964,827.4251,801.1054
2015-11-09 07:49:00,829.07007,861.9697,825.78015,806.04034
2015-11-09 07:49:00,834.005,863.6147,829.07007,806.04034
2015-11-09 07:49:00,837.295,866.90466,827.4251,794.5255
2015-11-09 07:49:00,842.2299,868.5496,827.4251,799.46045
2015-11-09 07:49:00,838.94,866.90466,827.4251,804.3954
2015-11-09 07:49:00,842.2299,866.90466,825.78015,806.04034
2015-11-09 07:49:00,842.2299,866.90466,820.8452,801.1054
2015-11-09 07:49:00,842.2299,865.25964,822.4902,801.1054
2015-11-09 07:49:00,845.5199,865.25964,822.4902,799.46045
2015-11-09 07:49:00,842.2299,865.25964,820.8452,804.3954
2015-11-09 07:49:00,838.94,863.6147,824.13513,809.3303
2015-11-09 07:49:00,834.005,863.6147,824.13513,802.7504
2015-11-09 07:49:00,832.36005,865.25964,824.13513,809.3303
2015-11-09 07:49:00,832.36005,865.25964,829.07007,815.9103
2015-11-09 07:49:00,825.78015,861.9697,825.78015,812.6203
2015-11-09 07:49:00,834.005,863.6147,825.78015,815.9103
2015-11-09 07:49:00,825.78015,860.3247,824.13513,810.9753
2015-11-09 07:49:00,819.2002,858.67975,824.13513,809.3303
2015-11-09 07:49:00,822.4902,858.67975,827.4251,807.68536
2015-11-09 07:49:00,820.8452,865.25964,825.78015,809.3303
2015-11-09 07:49:00,830.7151,870.1946,825.78015,810.9753
2015-11-09 07:49:00,838.94,865.25964,829.07007,814.26526
2015-11-09 07:49:00,837.295,866.90466,825.78015,820.8452
2015-11-09 07:49:00,835.65,863.6147,824.13513,817.55524
2015-11-09 07:49:00,842.2299,863.6147,820.8452,817.55524
2015-11-09 07:49:00,840.58496,863.6147,819.2002,820.8452
2015-11-09 07:49:00,837.295,865.25964,824.13513,810.9753
2015-11-09 07:49:00,834.005,868.5496,827.4251,819.2002
2015-11-09 07:49:00,825.78015,866.90466,825.78015,814.26526
2015-11-09 07:49:00,824.13513,866.90466,822.4902,817.55524
2015-11-09 07:49:00,824.13513,863.6147,822.4902,820.8452
2015-11-09 07:49:00,830.7151,860.3247,820.8452,812.6203
2015-11-09 07:49:00,830.7151,863.6147,822.4902,817.55524
2015-11-09 07:49:00,832.36005,866.90466,825.78015,824.13513
2015-11-09 07:49:00,830.7151,866.90466,822.4902,822.4902
2015-11-09 07:49:00,822.4902,866.90466,825.78015,822.4902
2015-11-09 07:49:00,822.4902,865.25964,824.13513,822.4902
2015-11-09 07:49:00,824.13513,865.25964,819.2002,817.55524
2015-11-09 07:49:00,830.7151,865.25964,822.4902,819.2002
2015-11-09 07:49:00,832.36005,870.1946,824.13513,822.4902
2015-11-09 07:49:00,830.7151,870.1946,825.78015,820.8452
2015-11-09 07:49:00,837.295,868.5496,829.07007,824.13513
2015-11-09 07:49:00,835.65,866.90466,825.78015,825.78015
2015-11-09 07:49:00,834.005,863.6147,827.4251,824.13513
2015-11-09 07:49:00,827.4251,857.0347,824.13513,825.78015
2015-11-09 07:49:00,824.13513,855.3898,829.07007,829.07007
2015-11-09 07:49:00,822.4902,866.90466,829.07007,825.78015
2015-11-09 07:49:00,825.78015,865.25964,827.4251,830.7151
2015-11-09 07:49:00,834.005,870.1946,825.78015,820.8452
2015-11-09 07:49:00,837.295,866.90466,822.4902,819.2002
2015-11-09 07:49:00,837.295,863.6147,824.13513,825.78015
2015-11-09 07:49:00,837.295,866.90466,822.4902,834.005
2015-11-09 07:49:00,835.65,868.5496,825.78015,832.36005
2015-11-09 07:49:00,830.7151,865.25964,825.78015,837.295
2015-11-09 07:49:00,835.65,863.6147,824.13513,824.13513
2015-11-09 07:49:00,838.94,865.25964,827.4251,825.78015
2015-11-09 07:49:00,843.87494,866.90466,824.13513,824.13513
2015-11-09 07:49:00,840.58496,871.8396,825.78015,822.4902
2015-11-09 07:49:00,829.07007,866.90466,825.78015,825.78015
2015-11-09 07:49:00,825.78015,865.25964,820.8452,824.13513
2015-11-09 07:49:00,829.07007,865.25964,822.4902,825.78015
2015-11-09 07:49:00,832.36005,865.25964,820.8452,827.4251
2015-11-09 07:49:00,835.65,866.90466,822.4902,829.07007
2015-11-09 07:49:00,842.2299,866.90466,824.13513,832.36005
2015-11-09 07:49:00,835.65,863.6147,824.13513,829.07007
2015-11-09 07:49:00,835.65,863.6147,822.4902,829.07007
2015-11-09 07:49:00,829.07007,865.25964,820.8452,825.78015
